Data from h2-2_HR4C25001_18-03-39-954.txt Node
Date: Thu Aug 31 18:03:39 CDT 2023
User: kk37594
Spectrometer: HR4C2500
Trigger mode: 4
Integration Time (sec): 2.500000E-1
Scans to average: 5
Electric dark correction enabled: true
Nonlinearity correction enabled: false
Boxcar width: 0
XAxis mode: Wavelengths
Number of Pixels in Spectrum: 3648
>>>>>Begin Spectral Data<<<<<
629.667	-140.62
629.685	-140.62
629.703	-140.62
629.722	-154.02
629.74	-108.02
629.758	2.98
629.776	11.58
629.795	33.98
629.813	13.38
629.831	-31.02
629.85	5.38
629.868	10.98
629.886	33.98
629.905	-45.62
629.923	-30.42
629.941	-8.22
629.96	5.58
629.978	-2.62
629.996	-3.42
630.014	59.58
630.033	37.78
630.051	20.38
630.069	9.98
630.088	42.98
630.106	8.58
630.124	-15.62
630.142	-13.42
630.161	-27.02
630.179	-13.02
630.197	-5.82
630.216	58.18
630.234	214.78
630.252	78.18
630.27	33.58
630.289	19.58
630.307	11.38
630.325	5.58
630.343	-3.82
630.362	25.18
630.38	64.78
630.398	14.58
630.416	-14.42
630.435	-13.42
630.453	10.38
630.471	31.98
630.489	4.78
630.507	16.18
630.526	16.38
630.544	7.98
630.562	4.58
630.58	5.38
630.599	13.38
630.617	9.38
630.635	-2.22
630.653	10.78
630.671	23.78
630.69	-0.22
630.708	4.98
630.726	19.18
630.744	4.98
630.762	-23.62
630.781	-23.62
630.799	7.78
630.817	30.98
630.835	39.38
630.853	-3.62
630.871	-4.42
630.89	18.18
630.908	-3.02
630.926	-42.22
630.944	17.78
630.962	74.98
630.98	104.18
630.999	16.18
631.017	6.38
631.035	1.58
631.053	-23.62
631.071	7.98
631.089	11.78
631.108	2.98
631.126	15.98
631.144	1.98
631.162	16.38
631.18	33.78
631.198	25.98
631.216	2.38
631.234	-21.62
631.253	2.98
631.271	13.18
631.289	7.78
631.307	10.38
631.325	21.98
631.343	32.98
631.361	4.78
631.379	22.58
631.398	16.38
631.416	7.98
631.434	-17.02
631.452	-7.02
631.47	-22.82
631.488	-15.62
631.506	-28.02
631.524	-22.62
631.542	11.98
631.56	9.58
631.578	3.38
631.597	-7.42
631.615	-42.42
631.633	-19.42
631.651	-7.82
631.669	-10.02
631.687	47.18
631.705	54.98
631.723	12.38
631.741	-3.82
631.759	4.58
631.777	-1.82
631.795	13.38
631.813	14.98
631.831	5.98
631.849	38.78
631.867	18.58
631.885	9.18
631.903	33.98
631.922	-20.22
631.94	-21.42
631.958	1.58
631.976	17.38
631.994	-8.22
632.012	-24.62
632.03	7.18
632.048	41.58
632.066	33.98
632.084	1.98
632.102	-3.22
632.12	-18.82
632.138	-12.02
632.156	18.58
632.174	-13.42
632.192	-20.82
632.21	-3.02
632.228	-29.02
632.246	-14.62
632.264	17.38
632.282	42.18
632.3	-10.82
632.318	-4.42
632.336	6.98
632.354	9.18
632.372	-0.42
632.39	4.98
632.408	10.78
632.426	-21.62
632.443	12.98
632.461	-2.02
632.479	5.18
632.497	3.98
632.515	-6.42
632.533	27.58
632.551	25.58
632.569	13.38
632.587	-16.02
632.605	-16.42
632.623	10.78
632.641	23.18
632.659	-37.42
632.677	-22.82
632.695	-4.02
632.713	-10.82
632.731	-3.42
632.748	4.58
632.766	18.98
632.784	34.38
632.802	15.18
632.82	33.58
632.838	10.78
632.856	-12.02
632.874	5.38
632.892	-10.02
632.91	-4.02
632.928	7.58
632.945	-5.42
632.963	15.18
632.981	23.58
632.999	2.38
633.017	-18.62
633.035	4.78
633.053	3.98
633.071	0.78
633.089	-28.82
633.106	5.98
633.124	44.38
633.142	-2.62
633.16	15.38
633.178	12.18
633.196	37.18
633.214	36.18
633.231	10.78
633.249	-21.42
633.267	0.78
633.285	12.78
633.303	-28.82
633.321	-19.82
633.339	23.38
633.356	49.18
633.374	19.78
633.392	0.38
633.41	-17.82
633.428	6.98
633.446	-6.42
633.463	-32.82
633.481	-15.22
633.499	-22.82
633.517	-5.62
633.535	-9.82
633.552	15.98
633.57	-7.02
633.588	-29.42
633.606	-32.02
633.624	6.58
633.641	12.38
633.659	-16.62
633.677	-31.22
633.695	-9.82
633.713	22.58
633.73	5.38
633.748	-18.42
633.766	-7.02
633.784	6.98
633.802	-13.22
633.819	-16.02
633.837	-15.82
633.855	-63.22
633.873	-65.82
633.89	-35.02
633.908	14.98
633.926	-0.42
633.944	-19.02
633.961	0.38
633.979	21.98
633.997	-45.02
634.015	-12.42
634.032	30.18
634.05	44.18
634.068	-14.42
634.086	9.38
634.103	10.18
634.121	-3.82
634.139	16.58
634.157	-7.82
634.174	-11.62
634.192	-7.42
634.21	-12.82
634.227	12.38
634.245	18.98
634.263	32.98
634.281	46.58
634.298	4.38
634.316	-0.22
634.334	-0.82
634.351	-23.02
634.369	-32.62
634.387	3.58
634.404	24.58
634.422	-8.82
634.44	-14.42
634.458	-25.82
634.475	29.38
634.493	61.78
634.511	-22.02
634.528	-3.42
634.546	3.18
634.564	-4.22
634.581	-44.42
634.599	-0.22
634.617	13.38
634.634	13.78
634.652	-22.22
634.67	-9.22
634.687	35.18
634.705	11.58
634.723	-6.62
634.74	21.98
634.758	2.58
634.775	-4.82
634.793	-17.02
634.811	30.98
634.828	22.18
634.846	-8.42
634.864	-12.42
634.881	22.18
634.899	6.38
634.917	0.78
634.934	-10.82
634.952	15.58
634.969	20.98
634.987	27.78
635.005	-9.82
635.022	14.18
635.04	25.78
635.057	1.98
635.075	-20.82
635.093	-0.22
635.11	26.58
635.128	17.78
635.145	-14.22
635.163	23.38
635.181	15.98
635.198	25.58
635.216	9.98
635.233	4.18
635.251	29.58
635.268	-2.42
635.286	-11.42
635.304	-9.02
635.321	-9.62
635.339	-30.22
635.356	-37.22
635.374	-20.22
635.391	-10.62
635.409	-12.02
635.426	4.58
635.444	1.58
635.462	-1.62
635.479	6.18
635.497	-7.02
635.514	2.98
635.532	7.18
635.549	2.38
635.567	-22.82
635.584	-1.62
635.602	65.58
635.619	57.78
635.637	-22.62
635.654	7.78
635.672	0.58
635.689	13.18
635.707	-9.42
635.724	-7.62
635.742	-14.02
635.759	-19.82
635.777	-23.22
635.795	-5.82
635.812	37.98
635.829	-3.42
635.847	-36.02
635.864	-5.22
635.882	11.18
635.899	20.58
635.917	-7.82
635.934	-9.22
635.952	4.78
635.969	-11.62
635.987	21.98
636.004	73.98
636.022	31.58
636.039	-11.42
636.057	2.18
636.074	-5.42
636.092	-2.02
636.109	-14.62
636.127	-8.02
636.144	-0.82
636.161	49.58
636.179	-5.02
636.196	-24.82
636.214	-22.22
636.231	1.78
636.249	-12.02
636.266	-11.22
636.283	10.18
636.301	23.18
636.318	8.78
636.336	-17.82
636.353	-6.82
636.371	18.98
636.388	-2.82
636.405	12.58
636.423	16.78
636.44	19.98
636.458	-14.82
636.475	-32.22
636.492	-40.02
636.51	-24.22
636.527	-5.62
636.545	-10.62
636.562	-10.62
636.579	-19.02
636.597	-29.42
636.614	-11.22
636.632	-2.82
636.649	51.98
636.666	35.38
636.684	-14.22
636.701	-30.02
636.718	-30.82
636.736	-19.82
636.753	-1.82
636.771	9.18
636.788	22.78
636.805	-1.82
636.823	-27.42
636.84	-24.22
636.857	-29.02
636.875	-31.22
636.892	-25.42
636.909	21.18
636.927	34.98
636.944	-11.42
636.961	-26.02
636.979	-15.62
636.996	5.38
637.013	4.98
637.031	-12.42
637.048	-30.62
637.065	4.38
637.083	7.18
637.1	-19.02
637.117	-33.42
637.135	18.38
637.152	23.18
637.169	-4.22
637.187	-11.62
637.204	25.38
637.221	8.38
637.238	-19.82
637.256	30.38
637.273	8.58
637.29	14.38
637.308	-23.22
637.325	-2.02
637.342	18.58
637.359	41.58
637.377	28.38
637.394	50.18
637.411	3.18
637.428	12.18
637.446	-26.62
637.463	1.18
637.48	74.78
637.498	22.78
637.515	-20.42
637.532	7.78
637.549	-8.22
637.567	-12.22
637.584	-13.82
637.601	-1.62
637.618	24.58
637.636	17.78
637.653	-8.62
637.67	-13.82
637.687	16.98
637.704	14.98
637.722	-7.42
637.739	5.38
637.756	38.78
637.773	25.58
637.791	-9.82
637.808	15.58
637.825	13.38
637.842	15.98
637.859	-6.62
637.877	-5.22
637.894	8.18
637.911	-2.62
637.928	-25.02
637.945	6.38
637.963	37.18
637.98	19.18
637.997	-1.42
638.014	-28.02
638.031	-9.22
638.049	8.78
638.066	-30.22
638.083	-15.02
638.1	0.38
638.117	-1.42
638.134	-16.42
638.152	-6.22
638.169	-31.42
638.186	-17.22
638.203	-26.62
638.22	-42.62
638.237	-35.02
638.255	-27.82
638.272	-25.22
638.289	-19.22
638.306	-18.82
638.323	5.58
638.34	4.38
638.357	8.18
638.374	39.98
638.392	-8.62
638.409	-27.62
638.426	-8.62
638.443	3.18
638.46	-8.42
638.477	-9.02
638.494	7.18
638.511	19.38
638.529	16.98
638.546	-32.02
638.563	-15.62
638.58	12.58
638.597	12.98
638.614	-12.42
638.631	-8.82
638.648	2.38
638.665	-5.42
638.682	-18.82
638.7	-1.62
638.717	34.58
638.734	4.38
638.751	-8.22
638.768	2.38
638.785	10.18
638.802	-15.02
638.819	-10.22
638.836	5.78
638.853	37.98
638.87	-5.22
638.887	-42.42
638.904	-11.42
638.921	33.18
638.939	39.18
638.956	12.58
638.973	-10.82
638.99	17.98
639.007	24.18
639.024	0.58
639.041	25.38
639.058	42.38
639.075	16.18
639.092	21.38
639.109	-36.42
639.126	-34.42
639.143	-14.82
639.16	-25.42
639.177	23.38
639.194	58.78
639.211	61.98
639.228	24.78
639.245	-5.42
639.262	6.78
639.279	-3.82
639.296	2.98
639.313	12.78
639.33	-3.22
639.347	17.18
639.364	-5.22
639.381	-3.02
639.398	30.98
639.415	27.38
639.432	2.58
639.449	-8.22
639.466	21.98
639.483	18.98
639.5	11.38
639.517	-0.42
639.534	-22.22
639.551	-34.62
639.568	-49.82
639.585	-25.82
639.602	8.58
639.619	1.18
639.636	7.78
639.653	19.98
639.669	-11.42
639.686	-7.02
639.703	7.38
639.72	13.38
639.737	8.58
639.754	21.98
639.771	20.98
639.788	41.98
639.805	70.78
639.822	16.78
639.839	-9.42
639.856	10.38
639.873	18.98
639.89	21.98
639.906	-32.42
639.923	-13.42
639.94	11.78
639.957	21.18
639.974	-7.22
639.991	11.38
640.008	20.58
640.025	6.78
640.042	-20.22
640.059	-18.82
640.075	-0.22
640.092	25.18
640.109	13.78
640.126	13.98
640.143	-14.62
640.16	-3.62
640.177	-8.62
640.194	-22.02
640.21	-6.42
640.227	15.38
640.244	7.18
640.261	26.18
640.278	46.58
640.295	12.78
640.312	-34.62
640.328	-27.62
640.345	15.38
640.362	1.58
640.379	-10.02
640.396	28.98
640.413	72.58
640.43	-8.02
640.446	-41.42
640.463	-9.62
640.48	-11.62
640.497	-24.42
640.514	-30.42
640.531	-11.42
640.547	12.38
640.564	-0.22
640.581	19.58
640.598	35.58
640.615	5.38
640.631	-5.42
640.648	-28.82
640.665	-14.82
640.682	27.78
640.699	-23.82
640.715	-19.82
640.732	-15.22
640.749	-9.82
640.766	23.38
640.783	14.58
640.799	6.58
640.816	27.58
640.833	9.18
640.85	-2.42
640.866	17.18
640.883	72.38
640.9	15.98
640.917	-5.02
640.933	-26.02
640.95	-20.82
640.967	-1.62
640.984	-21.02
641.001	-24.42
641.017	-21.62
641.034	-24.82
641.051	-19.22
641.068	-20.22
641.084	18.98
641.101	-1.62
641.118	7.98
641.134	-7.82
641.151	1.38
641.168	-4.62
641.185	-27.02
641.201	26.58
641.218	34.58
641.235	-4.62
641.252	-20.02
641.268	4.78
641.285	4.98
641.302	13.98
641.318	-30.82
641.335	-12.42
641.352	-5.22
641.368	19.58
641.385	12.18
641.402	7.58
641.419	13.98
641.435	8.58
641.452	48.38
641.469	12.98
641.485	2.18
641.502	6.18
641.519	-24.42
641.535	-5.82
641.552	49.78
641.569	51.78
641.585	-7.82
641.602	-1.02
641.619	15.98
641.635	-25.82
641.652	-30.22
641.669	6.18
641.685	26.38
641.702	21.78
641.719	28.18
641.735	32.38
641.752	7.98
641.769	-13.22
641.785	-23.22
641.802	-22.42
641.818	23.18
641.835	39.38
641.852	16.18
641.868	17.78
641.885	21.58
641.902	-10.62
641.918	-9.22
641.935	8.18
641.951	6.38
641.968	-12.22
641.985	-34.42
642.001	4.38
642.018	24.18
642.034	5.98
642.051	-11.62
642.068	-36.42
642.084	-3.42
642.101	-3.42
642.117	-4.22
642.134	2.58
642.151	11.78
642.167	-7.62
642.184	-24.02
642.2	19.98
642.217	50.78
642.233	39.58
642.25	-5.42
642.267	8.38
642.283	19.18
642.3	-1.02
642.316	-29.62
642.333	-4.62
642.349	-10.42
642.366	-40.62
642.382	-52.82
642.399	128.38
642.416	354.78
642.432	41.18
642.449	-45.82
642.465	-15.02
642.482	5.98
642.498	-7.02
642.515	-1.62
642.531	-24.42
642.548	-0.42
642.564	22.98
642.581	6.98
642.597	-4.82
642.614	21.98
642.63	32.38
642.647	-6.42
642.663	13.18
642.68	7.18
642.696	22.78
642.713	-25.42
642.729	1.58
642.746	37.78
642.762	3.38
642.779	-6.62
642.795	-25.02
642.812	-30.02
642.828	-37.42
642.845	-31.62
642.861	-18.22
642.878	-20.62
642.894	0.58
642.911	34.58
642.927	-12.42
642.944	3.98
642.96	35.98
642.977	-10.62
642.993	3.58
643.01	8.98
643.026	-13.82
643.042	-29.42
643.059	-9.42
643.075	-14.22
643.092	-34.02
643.108	-44.42
643.125	-30.22
643.141	-15.82
643.158	-18.22
643.174	-6.22
643.19	54.78
643.207	42.38
643.223	-12.82
643.24	-2.62
643.256	-11.62
643.272	-14.02
643.289	-13.22
643.305	-2.82
643.322	11.38
643.338	6.58
643.355	4.38
643.371	12.18
643.387	4.38
643.404	-14.02
643.42	-11.62
643.437	8.38
643.453	36.18
643.469	10.98
643.486	-3.22
643.502	12.98
643.518	3.58
643.535	-6.82
643.551	13.38
643.568	-7.02
643.584	0.18
643.6	-5.22
643.617	-1.42
643.633	-14.62
643.649	-2.42
643.666	8.78
643.682	-13.82
643.698	-4.82
643.715	-12.42
643.731	-8.62
643.748	-17.02
643.764	-3.62
643.78	-2.42
643.797	22.18
643.813	15.78
643.829	13.78
643.846	-6.02
643.862	45.18
643.878	44.58
643.895	13.98
643.911	13.58
643.927	19.58
643.943	25.78
643.96	-33.22
643.976	-34.42
643.992	12.98
644.009	31.38
644.025	0.78
644.041	-3.22
644.058	21.98
644.074	28.98
644.09	2.58
644.106	8.78
644.123	7.58
644.139	8.98
644.155	-12.62
644.172	-14.22
644.188	39.38
644.204	18.78
644.22	5.18
644.237	10.98
644.253	4.98
644.269	4.98
644.286	-5.42
644.302	-18.62
644.318	-3.82
644.334	18.98
644.351	11.98
644.367	3.58
644.383	9.58
644.399	8.38
644.416	3.58
644.432	-18.42
644.448	-32.22
644.464	-23.82
644.481	-20.42
644.497	-13.02
644.513	13.58
644.529	2.38
644.545	6.18
644.562	-4.02
644.578	14.38
644.594	3.78
644.61	-7.82
644.627	-13.82
644.643	1.18
644.659	-11.42
644.675	-48.22
644.691	-35.82
644.708	-4.62
644.724	9.18
644.74	-22.62
644.756	-5.02
644.772	20.18
644.789	37.58
644.805	5.98
644.821	-23.02
644.837	6.78
644.853	21.98
644.869	-3.02
644.886	12.78
644.902	37.58
644.918	32.98
644.934	1.18
644.95	30.98
644.966	0.58
644.983	2.18
644.999	-19.02
645.015	-24.42
645.031	10.58
645.047	16.78
645.063	4.18
645.079	90.78
645.096	216.98
645.112	18.58
645.128	6.58
645.144	-1.82
645.16	25.38
645.176	6.98
645.192	-8.62
645.209	15.38
645.225	12.78
645.241	41.78
645.257	30.38
645.273	15.58
645.289	31.18
645.305	-3.42
645.321	-4.22
645.337	6.38
645.354	33.98
645.37	-4.22
645.386	-5.42
645.402	2.78
645.418	-1.22
645.434	-21.82
645.45	-8.02
645.466	6.18
645.482	-1.82
645.498	0.98
645.514	-40.02
645.531	-28.62
645.547	2.98
645.563	8.78
645.579	-22.62
645.595	-4.82
645.611	-7.02
645.627	15.58
645.643	15.78
645.659	20.58
645.675	16.58
645.691	-7.02
645.707	-20.42
645.723	-18.22
645.739	11.78
645.755	3.58
645.771	-25.42
645.787	-4.42
645.803	43.98
645.819	62.98
645.835	-11.42
645.852	25.58
645.868	18.18
645.884	-16.42
645.9	-20.62
645.916	-2.62
645.932	-21.82
645.948	-3.42
645.964	-10.62
645.98	2.58
645.996	35.58
646.012	35.98
646.028	-0.82
646.044	-0.42
646.06	-0.62
646.076	-10.62
646.092	12.18
646.108	-14.22
646.124	15.58
646.14	23.58
646.156	0.38
646.172	24.78
646.188	41.58
646.203	1.98
646.219	-24.22
646.235	39.98
646.251	69.18
646.267	5.38
646.283	10.38
646.299	3.78
646.315	51.38
646.331	55.78
646.347	26.98
646.363	-11.42
646.379	-15.22
646.395	-36.82
646.411	-11.02
646.427	-6.42
646.443	-10.22
646.459	-12.62
646.475	6.78
646.491	-2.22
646.506	-10.22
646.522	-35.82
646.538	-17.62
646.554	-14.02
646.57	0.18
646.586	-6.02
646.602	6.38
646.618	-2.02
646.634	10.38
646.65	21.58
646.666	-10.82
646.682	-20.62
646.697	14.38
646.713	14.98
646.729	-5.22
646.745	4.78
646.761	41.78
646.777	25.38
646.793	-17.42
646.809	-8.62
646.824	-19.42
646.84	1.78
646.856	-7.42
646.872	-1.62
646.888	15.78
646.904	-21.22
646.92	-10.62
646.936	-5.42
646.951	-5.62
646.967	10.18
646.983	33.38
646.999	23.38
647.015	21.38
647.031	42.58
647.047	-5.62
647.062	-16.42
647.078	-17.22
647.094	-15.82
647.11	-14.22
647.126	-23.82
647.142	7.98
647.157	53.98
647.173	0.38
647.189	-10.02
647.205	-28.02
647.221	-36.02
647.236	-10.82
647.252	-4.02
647.268	-13.22
647.284	-13.42
647.3	11.58
647.315	0.98
647.331	6.58
647.347	28.18
647.363	-1.22
647.379	14.18
647.394	22.38
647.41	10.38
647.426	0.78
647.442	-5.62
647.458	5.78
647.473	11.38
647.489	-0.42
647.505	20.78
647.521	23.38
647.536	-0.02
647.552	-23.62
647.568	-18.02
647.584	26.78
647.599	16.58
647.615	-1.42
647.631	6.58
647.647	15.38
647.662	6.18
647.678	-21.42
647.694	-42.22
647.71	-20.22
647.725	-47.02
647.741	-38.82
647.757	-12.42
647.773	15.38
647.788	13.38
647.804	-9.42
647.82	2.98
647.835	28.98
647.851	13.78
647.867	-16.02
647.883	-9.02
647.898	11.98
647.914	28.78
647.93	16.78
647.945	-14.22
647.961	13.78
647.977	24.78
647.993	-11.02
648.008	10.58
648.024	31.38
648.04	-12.62
648.055	-13.62
648.071	-7.22
648.087	1.18
648.102	-32.22
648.118	-30.82
648.134	-27.02
648.149	1.18
648.165	8.58
648.181	-10.62
648.196	-24.02
648.212	-13.82
648.228	-5.82
648.243	-1.22
648.259	5.98
648.275	1.98
648.29	4.58
648.306	5.98
648.322	3.98
648.337	2.78
648.353	41.98
648.368	34.78
648.384	66.38
648.4	13.98
648.415	-18.82
648.431	-10.22
648.447	5.38
648.462	41.78
648.478	20.58
648.493	-35.42
648.509	0.58
648.525	19.58
648.54	-30.22
648.556	-29.82
648.572	11.18
648.587	13.98
648.603	0.98
648.618	6.78
648.634	3.18
648.65	24.18
648.665	15.78
648.681	-15.22
648.696	17.58
648.712	66.78
648.727	65.98
648.743	38.78
648.759	53.38
648.774	56.18
648.79	6.78
648.805	-34.42
648.821	-14.82
648.836	20.78
648.852	-4.42
648.868	-8.42
648.883	-3.22
648.899	4.78
648.914	-14.82
648.93	2.58
648.945	23.98
648.961	52.18
648.976	24.58
648.992	0.38
649.007	0.98
649.023	13.78
649.039	13.18
649.054	-20.42
649.07	7.98
649.085	-10.62
649.101	8.58
649.116	-24.82
649.132	5.58
649.147	9.78
649.163	-5.62
649.178	-12.62
649.194	3.78
649.209	60.18
649.225	44.78
649.24	24.98
649.256	43.98
649.271	35.98
649.287	7.38
649.302	-9.22
649.318	-1.82
649.333	-26.62
649.349	-0.62
649.364	11.78
649.38	24.78
649.395	33.78
649.41	30.58
649.426	13.78
649.441	-3.22
649.457	20.18
649.472	-11.22
649.488	-1.02
649.503	18.58
649.519	37.78
649.534	38.38
649.55	34.18
649.565	39.98
649.581	35.98
649.596	15.78
649.611	-0.42
649.627	17.58
649.642	8.78
649.658	-15.82
649.673	18.58
649.689	26.78
649.704	38.18
649.719	46.78
649.735	15.18
649.75	40.58
649.766	10.78
649.781	20.58
649.796	-26.42
649.812	7.18
649.827	40.78
649.843	-3.82
649.858	4.18
649.874	-12.82
649.889	8.58
649.904	20.58
649.92	-1.82
649.935	-9.02
649.95	31.78
649.966	-7.22
649.981	-4.02
649.997	6.18
650.012	-6.62
650.027	-9.62
650.043	-15.62
650.058	-10.82
650.073	5.78
650.089	16.78
650.104	24.58
650.12	-15.42
650.135	-1.42
650.15	-4.62
650.166	4.58
650.181	6.98
650.196	33.98
650.212	20.18
650.227	-13.22
650.242	19.38
650.258	14.98
650.273	8.78
650.288	-10.42
650.304	4.78
650.319	2.58
650.334	-8.42
650.35	4.38
650.365	64.78
650.38	39.98
650.396	-7.82
650.411	-0.42
650.426	-2.62
650.441	19.18
650.457	9.78
650.472	5.98
650.487	16.98
650.503	-5.82
650.518	-18.82
650.533	-4.02
650.549	26.58
650.564	38.78
650.579	17.58
650.594	8.98
650.61	17.58
650.625	32.58
650.64	18.78
650.656	-20.42
650.671	-17.62
650.686	8.98
650.701	23.98
650.717	10.38
650.732	36.38
650.747	19.58
650.762	13.38
650.778	16.18
650.793	10.78
650.808	29.78
650.823	11.18
650.839	2.58
650.854	13.38
650.869	40.98
650.884	57.58
650.9	2.38
650.915	0.78
650.93	-9.22
650.945	-5.82
650.96	8.98
650.976	12.78
650.991	-0.42
651.006	-11.22
651.021	-11.62
651.037	2.38
651.052	13.18
651.067	-37.62
651.082	-26.22
651.097	-23.62
651.113	-8.22
651.128	-18.82
651.143	14.38
651.158	-5.22
651.173	4.38
651.189	41.18
651.204	-23.02
651.219	-25.42
651.234	39.58
651.249	34.98
651.264	-2.62
651.28	-10.62
651.295	-2.82
651.31	40.78
651.325	-46.02
651.34	-32.22
651.355	-12.62
651.371	-34.22
651.386	-55.82
651.401	-17.82
651.416	11.78
651.431	-3.82
651.446	-22.62
651.461	-33.82
651.477	16.98
651.492	47.78
651.507	12.38
651.522	3.98
651.537	-3.82
651.552	-23.22
651.567	-9.42
651.583	15.38
651.598	37.58
651.613	-35.02
651.628	-10.22
651.643	-2.42
651.658	-13.62
651.673	-15.02
651.688	-15.62
651.703	9.18
651.719	46.18
651.734	52.78
651.749	-19.82
651.764	-4.22
651.779	6.58
651.794	-4.22
651.809	-24.22
651.824	14.38
651.839	3.18
651.854	19.58
651.869	-0.22
651.884	19.78
651.9	4.38
651.915	-20.62
651.93	-17.82
651.945	15.38
651.96	19.58
651.975	1.78
651.99	3.18
652.005	-17.62
652.02	4.38
652.035	41.98
652.05	63.78
652.065	176.98
652.08	17.78
652.095	-9.82
652.11	34.58
652.125	11.18
652.14	2.78
652.155	9.58
652.17	28.78
652.185	0.38
652.2	29.98
652.215	21.98
652.23	-18.62
652.245	-3.42
652.261	32.78
652.276	30.78
652.291	14.58
652.306	1.18
652.321	25.38
652.336	12.18
652.351	-17.02
652.366	-4.22
652.381	35.98
652.396	29.78
652.41	-2.62
652.425	32.78
652.44	48.78
652.455	-6.42
652.47	1.98
652.485	2.38
652.5	-22.62
652.515	-35.42
652.53	-16.82
652.545	-15.62
652.56	-11.42
652.575	-17.62
652.59	16.18
652.605	57.18
652.62	17.98
652.635	-21.62
652.65	-24.22
652.665	-20.02
652.68	9.58
652.695	31.18
652.71	-17.62
652.725	-20.82
652.74	8.78
652.755	13.18
652.769	26.38
652.784	-11.22
652.799	-0.02
652.814	12.98
652.829	0.38
652.844	-6.82
652.859	-26.22
652.874	-7.02
652.889	9.98
652.904	0.98
652.919	-24.82
652.934	-13.22
652.948	-4.82
652.963	-0.22
652.978	-9.82
652.993	-5.02
653.008	9.18
653.023	-15.02
653.038	-3.02
653.053	-9.22
653.068	-16.02
653.082	-10.02
653.097	7.38
653.112	13.38
653.127	-8.22
653.142	27.18
653.157	65.18
653.172	5.38
653.186	11.78
653.201	6.98
653.216	27.18
653.231	38.78
653.246	-17.22
653.261	-29.22
653.276	35.58
653.29	39.38
653.305	-9.62
653.32	-12.02
653.335	-26.62
653.35	-17.02
653.365	-1.82
653.379	-17.82
653.394	-24.62
653.409	-18.82
653.424	-18.02
653.439	-9.42
653.454	-12.02
653.468	-30.22
653.483	-31.02
653.498	-4.02
653.513	33.58
653.528	28.58
653.542	-4.82
653.557	-27.62
653.572	0.38
653.587	18.98
653.602	-2.62
653.616	-7.42
653.631	-25.22
653.646	-26.02
653.661	-2.02
653.675	-7.02
653.69	-18.82
653.705	-23.82
653.72	-24.02
653.735	-25.62
653.749	-8.82
653.764	4.78
653.779	3.98
653.794	8.78
653.808	2.98
653.823	-7.02
653.838	-0.42
653.853	39.58
653.867	-24.82
653.882	-23.62
653.897	11.58
653.912	23.78
653.926	49.58
653.941	24.98
653.956	3.78
653.971	-42.22
653.985	-24.42
654	4.78
654.015	-6.62
654.029	14.78
654.044	38.78
654.059	-6.02
654.074	22.98
654.088	139.58
654.103	326.98
654.118	46.98
654.132	24.98
654.147	8.58
654.162	-6.22
654.177	-1.82
654.191	-33.82
654.206	-34.82
654.221	7.58
654.235	10.38
654.25	75.78
654.265	173.78
654.279	82.98
654.294	34.78
654.309	26.78
654.323	47.18
654.338	39.98
654.353	24.18
654.367	13.78
654.382	8.18
654.397	-20.82
654.411	0.18
654.426	11.78
654.441	21.98
654.455	-6.02
654.47	-18.02
654.485	-2.62
654.499	11.78
654.514	25.98
654.528	17.38
654.543	8.18
654.558	32.78
654.572	17.18
654.587	20.58
654.602	5.38
654.616	-8.22
654.631	2.98
654.645	16.78
654.66	-0.42
654.675	-4.22
654.689	26.58
654.704	29.78
654.719	12.58
654.733	8.78
654.748	28.78
654.762	4.38
654.777	20.38
654.792	3.38
654.806	1.98
654.821	38.98
654.835	18.98
654.85	15.78
654.864	16.38
654.879	-5.42
654.894	-8.42
654.908	-5.62
654.923	1.98
654.937	-2.22
654.952	-2.22
654.966	9.98
654.981	39.58
654.996	12.38
655.01	16.58
655.025	-10.42
655.039	-1.82
655.054	-3.22
655.068	1.18
655.083	20.78
655.097	14.38
655.112	-5.22
655.126	-8.42
655.141	2.78
655.156	24.18
655.17	-10.42
655.185	-13.62
655.199	7.78
655.214	50.38
655.228	62.98
655.243	19.78
655.257	7.18
655.272	29.38
655.286	-15.42
655.301	-12.22
655.315	9.18
655.33	23.58
655.344	29.38
655.359	16.18
655.373	24.38
655.388	28.18
655.402	69.98
655.417	70.38
655.431	53.58
655.446	86.98
655.46	26.58
655.475	23.58
655.489	39.58
655.504	62.18
655.518	65.58
655.532	85.78
655.547	135.38
655.561	185.78
655.576	123.38
655.59	108.78
655.605	116.18
655.619	173.98
655.634	308.38
655.648	508.98
655.663	1264.38
655.677	3733.98
655.691	8853.58
655.706	14683.78
655.72	15564.78
655.735	15564.78
655.749	12573.18
655.764	9389.38
655.778	7585.78
655.792	6216.38
655.807	4739.78
655.821	3270.78
655.836	2121.78
655.85	1337.58
655.865	778.98
655.879	480.38
655.893	325.78
655.908	229.98
655.922	152.38
655.937	141.38
655.951	113.98
655.965	94.38
655.98	60.58
655.994	60.78
656.009	44.78
656.023	81.38
656.037	65.38
656.052	34.18
656.066	0.98
656.08	25.78
656.095	36.78
656.109	5.98
656.124	22.98
656.138	55.98
656.152	30.98
656.167	40.98
656.181	33.38
656.195	58.98
656.21	32.98
656.224	0.18
656.238	28.78
656.253	54.18
656.267	56.38
656.281	-10.82
656.296	3.98
656.31	43.78
656.324	57.98
656.339	32.18
656.353	15.98
656.367	31.18
656.382	-15.42
656.396	-29.42
656.41	-17.22
656.425	-2.62
656.439	-6.42
656.453	-25.22
656.468	-5.22
656.482	14.38
656.496	3.38
656.51	1.18
656.525	-0.42
656.539	3.58
656.553	-5.62
656.568	-3.02
656.582	0.78
656.596	14.58
656.611	-10.42
656.625	-18.62
656.639	0.38
656.653	20.98
656.668	5.38
656.682	-8.82
656.696	-8.82
656.71	3.18
656.725	33.98
656.739	22.18
656.753	39.18
656.767	1.98
656.782	9.58
656.796	42.38
656.81	83.38
656.824	-12.42
656.839	6.78
656.853	-7.62
656.867	4.18
656.881	31.18
656.896	1.58
656.91	-11.22
656.924	-0.82
656.938	16.18
656.953	16.38
656.967	2.98
656.981	34.18
656.995	19.78
657.009	17.58
657.024	-31.62
657.038	-24.02
657.052	6.58
657.066	68.98
657.08	-5.62
657.095	-4.22
657.109	-23.02
657.123	-8.22
657.137	-19.42
657.151	-4.82
657.166	-3.02
657.18	-16.82
657.194	-52.22
657.208	-13.62
657.222	-1.02
657.237	-5.42
657.251	-5.02
657.265	-0.02
657.279	-5.22
657.293	-35.82
657.307	-16.62
657.322	-10.82
657.336	32.18
657.35	81.98
657.364	12.78
657.378	19.58
657.392	-2.22
657.406	23.78
657.421	15.78
657.435	-3.82
657.449	15.58
657.463	-0.62
657.477	15.78
657.491	29.58
657.505	-15.42
657.52	1.78
657.534	-10.82
657.548	-9.62
657.562	56.98
657.576	73.38
657.59	2.38
657.604	4.58
657.618	9.38
657.632	11.38
657.647	-2.62
657.661	-10.82
657.675	34.98
657.689	28.38
657.703	-9.02
657.717	-7.02
657.731	6.38
657.745	24.38
657.759	-9.82
657.773	-22.02
657.787	-6.62
657.802	-11.82
657.816	1.78
657.83	-1.62
657.844	-5.62
657.858	14.98
657.872	-20.02
657.886	-5.62
657.9	3.38
657.914	22.38
657.928	27.18
657.942	21.38
657.956	25.18
657.97	5.18
657.984	19.58
657.998	91.78
658.012	29.18
658.026	-36.22
658.04	-25.62
658.054	-17.62
658.069	-30.42
658.083	-20.02
658.097	-11.02
658.111	14.58
658.125	54.58
658.139	68.38
658.153	7.78
658.167	38.18
658.181	27.18
658.195	-6.82
658.209	-33.22
658.223	-19.42
658.237	12.98
658.251	5.78
658.265	-4.82
658.279	5.38
658.293	-0.02
658.307	-0.22
658.321	-9.22
658.335	-7.42
658.349	12.38
658.363	12.98
658.377	-23.22
658.391	11.18
658.405	38.78
658.418	9.98
658.432	-17.62
658.446	-34.42
658.46	-18.22
658.474	-0.22
658.488	-8.42
658.502	21.78
658.516	13.38
658.53	-11.82
658.544	-22.62
658.558	-7.22
658.572	-5.02
658.586	30.18
658.6	2.78
658.614	-35.22
658.628	-6.22
658.642	26.18
658.656	-0.82
658.67	-16.02
658.683	142.58
658.697	357.78
658.711	22.78
658.725	8.38
658.739	14.58
658.753	16.18
658.767	-6.82
658.781	9.18
658.795	6.38
658.809	-31.02
658.823	-22.62
658.836	-5.62
658.85	35.18
658.864	12.18
658.878	0.38
658.892	-15.82
658.906	10.18
658.92	8.58
658.934	-16.22
658.947	-20.62
658.961	-17.42
658.975	16.98
658.989	-32.02
659.003	-30.02
659.017	-26.22
659.031	-27.82
659.045	-1.62
659.058	7.38
659.072	6.38
659.086	6.58
659.1	4.38
659.114	3.58
659.128	-12.22
659.141	-1.62
659.155	3.98
659.169	12.98
659.183	24.98
659.197	-3.22
659.211	-1.62
659.224	10.98
659.238	90.58
659.252	47.38
659.266	12.78
659.28	31.98
659.294	11.58
659.307	-14.62
659.321	-13.02
659.335	-20.82
659.349	-37.02
659.363	-10.02
659.376	25.78
659.39	6.58
659.404	-25.42
659.418	-9.82
659.432	-1.82
659.445	10.38
659.459	45.38
659.473	-17.42
659.487	2.78
659.5	-5.82
659.514	0.18
659.528	22.78
659.542	37.38
659.556	-7.42
659.569	14.38
659.583	15.58
659.597	15.18
659.611	6.18
659.624	103.38
659.638	204.18
659.652	-7.22
659.666	-21.22
659.679	3.58
659.693	-0.22
659.707	4.18
659.721	6.18
659.734	20.18
659.748	-7.82
659.762	-13.02
659.776	-6.82
659.789	41.18
659.803	-33.22
659.817	-30.02
659.83	10.78
659.844	28.18
659.858	-3.62
659.872	-24.22
659.885	-10.42
659.899	0.98
659.913	15.58
659.926	28.38
659.94	4.78
659.954	15.58
659.967	10.38
659.981	1.98
659.995	-0.02
660.009	20.78
660.022	24.18
660.036	19.18
660.05	-28.42
660.063	0.38
660.077	37.98
660.091	16.78
660.104	-37.62
660.118	2.18
660.132	26.38
660.145	-1.42
660.159	0.38
660.173	9.38
660.186	17.58
660.2	-26.02
660.214	-39.22
660.227	2.58
660.241	-5.82
660.254	-23.42
660.268	-10.22
660.282	22.98
660.295	19.78
660.309	-11.42
660.323	-22.42
660.336	-35.02
660.35	-39.82
660.364	4.58
660.377	0.98
660.391	59.58
660.404	32.98
660.418	0.78
660.432	-16.22
660.445	17.98
660.459	17.18
660.472	-24.42
660.486	-12.62
660.5	6.98
660.513	7.58
660.527	-15.22
660.54	15.78
660.554	46.58
660.568	12.98
660.581	-1.02
660.595	-3.42
660.608	-17.02
660.622	-4.02
660.635	7.98
660.649	8.18
660.663	28.38
660.676	17.78
660.69	11.18
660.703	9.38
660.717	-7.62
660.73	-27.42
660.744	-18.42
660.757	-10.62
660.771	11.78
660.785	-3.82
660.798	4.98
660.812	17.98
660.825	18.38
660.839	-6.82
660.852	6.78
660.866	24.78
660.879	24.38
660.893	-17.82
660.906	11.98
660.92	1.18
660.933	11.18
660.947	24.58
660.96	-22.62
660.974	6.78
660.987	48.78
661.001	-0.42
661.015	-32.42
661.028	-10.62
661.042	29.98
661.055	44.18
661.069	-6.82
661.082	-20.82
661.095	88.58
661.109	183.18
661.122	-10.42
661.136	-10.62
661.149	-24.82
661.163	-14.42
661.176	16.98
661.19	9.38
661.203	73.98
661.217	63.78
661.23	7.98
661.244	-0.02
661.257	25.98
661.271	-13.62
661.284	-9.22
661.298	-35.42
661.311	-12.62
661.324	6.78
661.338	-22.42
661.351	-25.62
661.365	6.18
661.378	0.38
661.392	-25.02
661.405	136.38
661.419	366.98
661.432	42.58
661.445	-6.62
661.459	-2.82
661.472	27.58
661.486	22.58
661.499	5.38
661.512	-18.62
661.526	40.18
661.539	22.98
661.553	-0.62
661.566	-9.22
661.579	12.78
661.593	-12.62
661.606	-35.42
661.62	-15.02
661.633	10.58
661.646	9.38
661.66	-20.02
661.673	-11.22
661.687	13.38
661.7	44.38
661.713	-5.62
661.727	94.18
661.74	239.58
661.753	10.38
661.767	-14.22
661.78	18.98
661.794	55.78
661.807	-13.82
661.82	-1.62
661.834	-5.02
661.847	-8.62
661.86	14.58
661.874	-6.62
661.887	1.58
661.9	18.78
661.914	5.98
661.927	-20.62
661.94	-6.82
661.954	15.18
661.967	51.18
661.98	27.18
661.994	-10.62
662.007	6.38
662.02	25.78
662.034	-6.22
662.047	-3.42
662.06	-2.82
662.074	-25.62
662.087	-24.02
662.1	-7.42
662.114	17.98
662.127	19.38
662.14	-38.82
662.153	-11.82
662.167	32.18
662.18	-6.82
662.193	-16.22
662.207	-20.42
662.22	-4.42
662.233	6.58
662.246	-23.82
662.26	11.78
662.273	16.38
662.286	-17.82
662.3	-7.22
662.313	-26.42
662.326	-19.42
662.339	-4.42
662.353	-17.22
662.366	-27.62
662.379	-23.02
662.392	-5.82
662.406	0.78
662.419	7.18
662.432	36.98
662.445	0.18
662.459	-34.42
662.472	-15.82
662.485	0.78
662.498	-10.02
662.512	2.18
662.525	9.98
662.538	-6.42
662.551	3.98
662.564	-13.02
662.578	-5.82
662.591	28.18
662.604	35.98
662.617	-4.62
662.63	10.18
662.644	12.78
662.657	-6.42
662.67	-1.22
662.683	12.58
662.696	-9.02
662.71	-0.62
662.723	-0.62
662.736	10.18
662.749	39.58
662.762	16.58
662.776	-8.02
662.789	14.98
662.802	48.58
662.815	45.58
662.828	-4.02
662.841	-22.02
662.855	8.98
662.868	17.38
662.881	-29.62
662.894	-29.22
662.907	4.18
662.92	58.58
662.934	-17.42
662.947	-13.42
662.96	17.98
662.973	5.18
662.986	-30.82
662.999	-26.02
663.012	18.18
663.026	11.18
663.039	9.98
663.052	-5.22
663.065	15.78
663.078	19.98
663.091	9.58
663.104	-12.22
663.117	-8.82
663.131	2.58
663.144	-12.42
663.157	-41.22
663.17	10.98
663.183	27.98
663.196	0.78
663.209	5.58
663.222	31.98
663.235	33.38
663.248	-14.42
663.262	-37.42
663.275	-25.82
663.288	4.18
663.301	-7.42
663.314	-9.02
663.327	17.78
663.34	29.98
663.353	-18.62
663.366	-31.02
663.379	32.78
663.392	52.78
663.405	-34.42
663.418	-40.42
663.431	-6.82
663.445	4.78
663.458	-12.42
663.471	7.18
663.484	30.98
663.497	15.18
663.51	-37.42
663.523	-24.22
663.536	9.78
663.549	-29.62
663.562	-31.82
663.575	-34.62
663.588	-22.42
663.601	-9.22
663.614	-18.02
663.627	-1.22
663.64	1.98
663.653	-6.02
663.666	-38.22
663.679	-30.02
663.692	47.38
663.705	52.58
663.718	-19.42
663.731	-21.02
663.744	-2.42
663.757	31.58
663.77	6.38
663.783	7.38
663.796	30.98
663.809	14.98
663.822	-15.62
663.835	-53.02
663.848	-16.82
663.861	-5.42
663.874	-11.22
663.887	0.78
663.9	8.78
663.913	-1.02
663.926	-2.62
663.939	-19.62
663.952	28.18
663.965	74.98
663.978	8.18
663.991	-41.02
664.004	-6.82
664.017	22.38
664.03	-10.62
664.042	7.18
664.055	6.78
664.068	1.18
664.081	-8.22
664.094	6.18
664.107	27.98
664.12	19.18
664.133	-14.42
664.146	-21.82
664.159	-6.82
664.172	-17.22
664.185	-13.02
664.198	-11.82
664.21	34.58
664.223	5.18
664.236	5.58
664.249	9.18
664.262	10.58
664.275	-8.22
664.288	14.78
664.301	21.58
664.314	5.18
664.327	14.58
664.339	-19.02
664.352	-13.62
664.365	7.78
664.378	8.98
664.391	9.18
664.404	30.18
664.417	33.98
664.43	18.18
664.442	-10.62
664.455	-10.42
664.468	6.58
664.481	12.58
664.494	16.18
664.507	-33.42
664.52	-15.42
664.532	13.38
664.545	-5.02
664.558	2.18
664.571	11.98
664.584	13.38
664.597	-26.22
664.609	-6.02
664.622	27.98
664.635	22.98
664.648	3.38
664.661	-10.42
664.674	6.58
664.686	-6.42
664.699	-23.22
664.712	-4.82
664.725	-6.02
664.738	-11.62
664.751	5.98
664.763	7.38
664.776	7.78
664.789	47.58
664.802	5.98
664.815	-7.62
664.827	7.98
664.84	5.58
664.853	-37.42
664.866	-3.62
664.878	-6.02
664.891	-14.22
664.904	8.78
664.917	17.98
664.93	9.78
664.942	31.78
664.955	15.98
664.968	23.78
664.981	46.58
664.993	6.38
665.006	-4.62
665.019	11.78
665.032	19.18
665.044	5.18
665.057	12.38
665.07	-3.62
665.083	-29.02
665.095	-14.02
665.108	-8.62
665.121	-9.42
665.134	-6.62
665.146	28.98
665.159	4.18
665.172	4.18
665.185	-4.62
665.197	1.98
665.21	-12.02
665.223	-1.22
665.235	78.18
665.248	157.18
665.261	7.78
665.274	-15.02
665.286	44.78
665.299	38.58
665.312	-7.22
665.324	37.38
665.337	33.58
665.35	5.98
665.362	-26.02
665.375	-17.82
665.388	14.18
665.4	36.18
665.413	7.78
665.426	2.78
665.438	-4.42
665.451	-3.42
665.464	-9.22
665.476	5.58
665.489	35.58
665.502	21.38
665.514	-14.62
665.527	2.58
665.54	-7.02
665.552	-15.62
665.565	-12.02
665.578	-15.22
665.59	13.18
665.603	22.78
665.616	23.58
665.628	16.98
665.641	11.58
665.654	-15.62
665.666	-3.42
665.679	6.98
665.691	45.98
665.704	28.98
665.717	-16.62
665.729	-11.82
665.742	14.58
665.755	-21.22
665.767	-16.62
665.78	-3.82
665.792	49.58
665.805	24.18
665.818	-0.62
665.83	-17.82
665.843	34.18
665.855	-6.82
665.868	-14.22
665.881	10.98
665.893	41.98
665.906	-5.62
665.918	-21.22
665.931	-32.22
665.943	36.38
665.956	27.18
665.969	-30.42
665.981	-22.82
665.994	-49.22
666.006	-53.62
666.019	-29.02
666.031	20.18
666.044	36.38
666.057	33.38
666.069	14.58
666.082	-10.62
666.094	10.78
666.107	10.98
666.119	-1.82
666.132	-7.22
666.144	1.98
666.157	-15.62
666.169	-18.22
666.182	-13.62
666.194	6.58
666.207	24.58
666.22	22.98
666.232	17.18
666.245	15.58
666.257	41.18
666.27	-6.42
666.282	-10.82
666.295	-4.42
666.307	-12.02
666.32	-16.02
666.332	5.38
666.345	24.38
666.357	32.18
666.37	29.58
666.382	22.58
666.395	30.58
666.407	-4.62
666.42	-3.62
666.432	4.78
666.445	25.38
666.457	-12.62
666.469	-8.42
666.482	8.98
666.494	37.38
666.507	41.78
666.519	-7.22
666.532	-39.82
666.544	-7.82
666.557	25.38
666.569	-11.02
666.582	3.38
666.594	39.38
666.607	26.58
666.619	-2.22
666.631	7.78
666.644	22.18
666.656	7.98
666.669	8.58
666.681	22.58
666.694	41.78
666.706	39.98
666.718	-2.22
666.731	0.58
666.743	3.58
666.756	30.38
666.768	-4.02
666.78	-26.62
666.793	-4.62
666.805	22.18
666.818	-2.62
666.83	-0.02
666.843	22.98
666.855	-7.82
666.867	-5.82
666.88	-25.02
666.892	-1.82
666.904	25.58
666.917	14.78
666.929	-14.42
666.942	41.38
666.954	66.78
666.966	-14.02
666.979	-17.42
666.991	-28.02
667.003	0.58
667.016	2.98
667.028	16.18
667.041	-10.22
667.053	3.58
667.065	13.98
667.078	-16.22
667.09	15.18
667.102	24.58
667.115	-27.22
667.127	-25.22
667.139	-2.82
667.152	47.58
667.164	4.58
667.176	-5.02
667.189	-19.42
667.201	-31.82
667.213	-29.02
667.226	-13.62
667.238	13.18
667.25	23.18
667.263	26.78
667.275	3.18
667.287	16.38
667.3	33.58
667.312	31.58
667.324	18.18
667.337	0.78
667.349	28.78
667.361	-5.22
667.373	-36.62
667.386	-11.22
667.398	11.78
667.41	-16.22
667.423	60.38
667.435	59.18
667.447	10.78
667.459	-0.22
667.472	13.58
667.484	31.78
667.496	-18.82
667.508	-29.02
667.521	6.78
667.533	14.58
667.545	29.18
667.558	8.98
667.57	8.58
667.582	3.18
667.594	-0.42
667.607	16.98
667.619	8.38
667.631	55.78
667.643	52.78
667.655	-12.22
667.668	-3.42
667.68	8.58
667.692	8.98
667.704	-6.62
667.717	-9.62
667.729	24.18
667.741	32.18
667.753	30.58
667.766	14.38
667.778	5.98
667.79	20.98
667.802	1.98
667.814	-13.62
667.827	29.18
667.839	35.98
667.851	-30.22
667.863	-30.22
667.875	-12.42
667.888	-4.22
667.9	-7.42
667.912	-10.22
667.924	-16.02
667.936	-4.22
667.948	-4.02
667.961	8.98
667.973	0.58
667.985	3.98
667.997	-17.42
668.009	-10.02
668.021	35.18
668.034	37.38
668.046	-10.02
668.058	-35.42
668.07	-10.82
668.082	2.98
668.094	46.38
668.107	38.98
668.119	39.18
668.131	13.78
668.143	-5.82
668.155	9.78
668.167	36.38
668.179	29.58
668.192	-11.22
668.204	4.18
668.216	23.18
668.228	1.78
668.24	2.58
668.252	28.38
668.264	47.18
668.276	-1.62
668.288	-9.22
668.301	-17.82
668.313	0.58
668.325	7.18
668.337	-30.62
668.349	-29.82
668.361	12.18
668.373	34.98
668.385	-8.62
668.397	-5.42
668.409	-23.62
668.422	10.58
668.434	-6.82
668.446	-0.22
668.458	24.58
668.47	-4.02
668.482	-11.82
668.494	-1.82
668.506	45.58
668.518	19.38
668.53	0.38
668.542	10.58
668.554	13.38
668.566	21.78
668.578	-11.82
668.59	12.98
668.602	3.78
668.615	-16.22
668.627	-17.82
668.639	-3.42
668.651	12.18
668.663	24.98
668.675	-19.82
668.687	-1.82
668.699	66.38
668.711	25.98
668.723	-4.22
668.735	9.78
668.747	7.38
668.759	-0.82
668.771	-28.62
668.783	-33.42
668.795	5.38
668.807	15.38
668.819	-18.02
668.831	-1.42
668.843	-10.82
668.855	33.38
668.867	-31.82
668.879	-20.42
668.891	29.58
668.903	35.98
668.915	-6.82
668.927	-13.62
668.939	11.58
668.951	8.58
668.963	-17.62
668.975	-2.42
668.987	31.98
668.999	25.38
669.011	12.78
669.023	16.18
669.035	47.38
669.046	0.78
669.058	-2.22
669.07	5.18
669.082	7.78
669.094	-24.02
669.106	-29.82
669.118	8.18
669.13	36.58
669.142	23.78
669.154	25.58
669.166	1.98
669.178	-1.82
669.19	-14.62
669.202	-32.02
669.214	-11.82
669.226	20.98
669.237	9.18
669.249	-9.02
669.261	-27.02
669.273	18.38
669.285	27.78
669.297	-7.02
669.309	5.58
669.321	26.78
669.333	36.58
669.345	-17.62
669.356	-26.22
669.368	-12.82
669.38	2.38
669.392	-27.22
669.404	-15.42
669.416	-11.02
669.428	-15.82
669.44	-40.82
669.451	-40.62
669.463	-8.82
669.475	16.18
669.487	-17.02
669.499	-6.22
669.511	24.78
669.523	-0.62
669.535	-8.02
669.546	-14.02
669.558	18.98
669.57	2.78
669.582	-35.22
669.594	-19.62
669.606	9.78
669.617	0.38
669.629	-26.22
669.641	-13.62
669.653	25.38
669.665	12.18
669.677	-11.42
669.688	-13.42
669.7	8.58
669.712	47.58
669.724	3.38
669.736	-3.22
669.747	-3.02
669.759	-0.42
669.771	-2.82
669.783	-0.02
669.795	5.78
669.807	0.98
669.818	-33.42
669.83	1.78
669.842	0.18
669.854	-14.02
669.865	-14.82
669.877	13.18
669.889	42.78
669.901	35.38
669.913	8.98
669.924	45.18
669.936	73.58
669.948	41.38
669.96	-6.02
669.971	-17.82
669.983	-7.22
669.995	11.58
670.007	-0.42
670.018	19.38
670.03	39.78
670.042	-10.42
670.054	-7.22
670.065	-20.02
670.077	5.18
670.089	15.98
670.101	-13.22
670.112	0.38
670.124	29.98
670.136	19.38
670.148	-23.82
670.159	-27.42
670.171	-4.82
670.183	-15.42
670.194	-10.22
670.206	5.78
670.218	16.78
670.23	24.78
670.241	-13.62
670.253	9.18
670.265	63.78
670.276	46.58
670.288	-3.42
670.3	-3.62
670.312	1.78
670.323	-6.82
670.335	-18.82
670.347	-19.62
670.358	33.78
670.37	28.58
670.382	-17.02
670.393	-20.22
670.405	2.98
670.417	-15.22
670.428	-3.82
670.44	-1.22
670.452	25.58
670.463	1.18
670.475	-28.02
670.487	-15.82
670.498	15.78
670.51	6.78
670.522	-13.22
670.533	5.38
670.545	-2.02
670.557	-22.42
670.568	4.18
670.58	-14.22
670.591	-9.82
670.603	-13.82
670.615	-17.82
670.626	-17.82
670.638	-8.02
670.65	16.58
670.661	-6.82
670.673	-35.42
670.684	1.38
670.696	25.78
670.708	-10.62
670.719	11.38
670.731	61.38
670.742	52.98
670.754	1.98
670.766	18.78
670.777	31.98
670.789	0.98
670.8	-19.82
670.812	-13.62
670.824	9.98
670.835	15.18
670.847	-22.02
670.858	-25.02
670.87	-7.22
670.881	7.98
670.893	-32.02
670.905	-36.62
670.916	-19.82
670.928	5.78
670.939	3.98
670.951	13.18
670.962	11.98
670.974	-22.82
670.986	-25.02
670.997	-29.82
671.009	-20.62
671.02	-2.82
671.032	-32.82
671.043	-30.62
671.055	11.18
671.066	18.78
671.078	-14.22
671.089	-12.42
671.101	31.58
671.112	32.38
671.124	-4.82
671.135	1.38
671.147	7.38
671.158	-14.62
671.17	2.58
671.181	26.78
671.193	22.38
671.204	40.78
671.216	-11.42
671.227	-9.42
671.239	6.18
671.25	-5.62
671.262	-9.42
671.273	-20.82
671.285	2.78
671.296	-0.62
671.308	-11.42
671.319	-13.22
671.331	-15.82
671.342	19.78
671.354	13.18
671.365	-6.82
671.377	-40.22
671.388	-39.02
671.4	-30.22
671.411	-13.62
671.423	-21.82
671.434	6.78
671.446	12.78
671.457	-0.42
671.468	25.38
671.48	28.78
671.491	-7.02
671.503	23.98
671.514	19.78
671.526	10.58
671.537	-15.42
671.548	-16.22
671.56	14.78
671.571	9.78
671.583	-5.42
671.594	13.38
671.606	70.78
671.617	46.18
671.628	-10.42
671.64	-2.62
671.651	4.18
671.663	-11.62
671.674	-37.02
671.685	-24.62
671.697	-30.42
671.708	-28.02
671.72	-12.42
671.731	-17.22
671.742	10.58
671.754	4.78
671.765	-12.82
671.777	-28.62
671.788	3.18
671.799	42.18
671.811	-1.22
671.822	-0.62
671.833	-10.82
671.845	3.58
671.856	1.78
671.868	13.98
671.879	52.98
671.89	88.78
671.902	-7.42
671.913	-28.02
671.924	-28.62
671.936	-6.82
671.947	-15.62
671.958	-5.82
671.97	44.78
671.981	23.58
671.992	-0.42
672.004	-30.02
672.015	7.58
672.026	11.58
672.038	-20.02
672.049	-15.82
672.06	-18.02
672.072	-31.82
672.083	-25.02
672.094	-18.42
672.106	53.78
672.117	97.18
672.128	4.18
672.139	-25.42
672.151	-8.22
672.162	-5.42
672.173	-11.82
672.185	-5.62
672.196	35.98
672.207	28.38
672.219	7.58
672.23	27.18
672.241	45.38
672.252	7.18
672.264	-16.42
672.275	-12.02
672.286	30.78
672.297	28.98
672.309	-14.02
672.32	-9.02
672.331	8.38
672.342	-1.22
672.354	-30.62
672.365	-16.22
672.376	3.38
672.387	-21.62
672.399	-29.02
672.41	-10.82
672.421	39.98
672.432	44.78
672.444	-8.02
672.455	-14.62
672.466	31.78
672.477	15.58
672.489	7.38
672.5	1.78
672.511	3.18
672.522	7.78
672.533	-20.62
672.545	-9.82
672.556	28.78
672.567	1.98
672.578	-17.82
672.59	-6.82
672.601	1.98
672.612	-15.62
672.623	-7.42
672.634	3.98
672.646	21.78
672.657	6.58
672.668	-27.02
672.679	-28.02
672.69	-8.02
672.701	-21.22
672.713	-29.62
672.724	-39.02
672.735	-13.82
672.746	-0.62
672.757	-20.42
672.768	-13.02
672.78	10.38
672.791	-6.82
672.802	-29.82
672.813	-6.22
672.824	22.58
672.835	23.58
672.847	-20.82
672.858	-20.42
672.869	2.78
672.88	14.18
672.891	-22.82
672.902	1.78
672.913	-1.02
672.925	-6.22
672.936	-19.62
672.947	15.58
672.958	38.78
672.969	-18.62
672.98	-10.22
672.991	9.98
673.002	10.78
673.013	-10.02
673.025	-34.82
673.036	-18.22
673.047	25.38
673.058	-1.02
673.069	-6.02
673.08	-10.22
673.091	2.78
673.102	-36.82
673.113	-23.02
673.124	7.98
673.136	44.38
673.147	25.38
673.158	-13.22
673.169	-10.22
673.18	-0.22
673.191	-19.62
673.202	-19.22
673.213	-21.82
673.224	22.58
673.235	31.58
673.246	-17.22
673.257	-12.62
673.268	19.98
673.279	27.78
673.29	-7.02
673.301	10.78
673.313	24.38
673.324	4.78
673.335	-22.82
673.346	-13.22
673.357	1.78
673.368	-23.22
673.379	-18.42
673.39	-5.22
673.401	39.78
673.412	-2.22
673.423	-2.02
673.434	-21.62
673.445	14.98
673.456	-10.82
673.467	-36.02
673.478	12.58
673.489	45.98
673.5	2.58
673.511	-12.82
673.522	11.18
673.533	64.38
673.544	30.18
673.555	-22.42
673.566	8.18
673.577	20.78
673.588	-10.22
673.599	6.18
673.61	-9.22
673.621	40.98
673.632	85.78
673.643	3.58
673.654	-12.42
673.665	5.18
673.676	-17.82
673.687	-18.42
673.698	-18.02
673.709	21.18
673.719	23.38
673.73	31.38
673.741	64.78
673.752	65.18
673.763	78.78
673.774	-6.42
673.785	-7.62
673.796	14.98
673.807	19.78
673.818	-20.02
673.829	15.38
673.84	53.58
673.851	33.98
673.862	-11.22
673.873	-11.62
673.883	32.58
673.894	18.58
673.905	-5.02
673.916	5.58
673.927	17.58
673.938	23.58
673.949	-20.42
673.96	-13.22
673.971	10.38
673.982	18.38
673.993	-9.22
674.003	-13.22
674.014	-3.42
674.025	-7.42
674.036	-42.02
674.047	-28.22
674.058	13.18
674.069	17.98
674.08	-13.82
674.09	11.38
674.101	-13.62
674.112	-37.82
674.123	-22.22
674.134	-14.82
674.145	-12.22
674.156	-3.22
674.166	-14.02
674.177	-26.42
674.188	-3.82
674.199	6.78
674.21	-27.42
674.221	-27.42
674.232	-6.02
674.242	-21.42
674.253	-13.62
674.264	27.38
674.275	36.18
674.286	-22.82
674.297	-30.82
674.307	-23.22
674.318	-5.62
674.329	-9.62
674.34	-6.82
674.351	-13.62
674.361	13.38
674.372	33.78
674.383	-35.82
674.394	-31.82
674.405	29.78
674.415	15.18
674.426	-26.42
674.437	-28.82
674.448	-12.22
674.459	0.98
674.469	6.98
674.48	6.38
674.491	-7.62
674.502	-17.22
674.512	-25.82
674.523	-39.62
674.534	-40.62
674.545	-37.82
674.556	-35.82
674.566	-24.82
674.577	-4.42
674.588	9.78
674.599	-21.22
674.609	-10.62
674.62	20.38
674.631	12.98
674.642	-31.82
674.652	-21.82
674.663	3.58
674.674	30.18
674.685	14.38
674.695	40.78
674.706	28.78
674.717	1.58
674.727	-27.62
674.738	-27.82
674.749	-4.22
674.76	-12.62
674.77	-6.22
674.781	-23.02
674.792	27.78
674.802	22.38
674.813	-8.42
674.824	2.98
674.835	7.58
674.845	-17.22
674.856	-15.22
674.867	-2.82
674.877	-8.82
674.888	-6.42
674.899	-11.42
674.909	-6.82
674.92	29.18
674.931	14.98
674.941	-29.02
674.952	-1.02
674.963	61.58
674.973	41.78
674.984	5.18
674.995	0.98
675.005	-6.82
675.016	-5.42
675.027	-19.22
675.037	-17.62
675.048	9.58
675.059	31.78
675.069	-0.02
675.08	-1.02
675.091	-30.62
675.101	-36.22
675.112	-27.22
675.123	18.98
675.133	33.18
675.144	5.18
675.154	-19.22
675.165	-21.82
675.176	32.18
675.186	48.18
675.197	12.18
675.208	8.98
675.218	7.18
675.229	-3.62
675.239	6.18
675.25	7.58
675.261	38.58
675.271	23.38
675.282	6.58
675.292	-2.82
675.303	9.38
675.314	7.78
675.324	-15.62
675.335	-38.42
675.345	-11.22
675.356	-12.42
675.366	-49.22
675.377	-41.62
675.388	-7.62
675.398	-2.42
675.409	-12.82
675.419	7.58
675.43	42.58
675.44	19.58
675.451	-12.62
675.462	3.58
675.472	21.98
675.483	13.38
675.493	8.58
675.504	1.18
675.514	0.18
675.525	-2.82
675.535	-40.62
675.546	-16.22
675.556	26.78
675.567	11.18
675.578	-16.22
675.588	-23.82
675.599	8.98
675.609	-3.22
675.62	-28.42
675.63	-18.02
675.641	-15.22
675.651	-24.62
675.662	-2.42
675.672	-21.62
675.683	7.18
675.693	6.78
675.704	-19.02
675.714	20.58
675.725	73.58
675.735	30.18
675.746	12.58
675.756	-27.42
675.767	-15.42
675.777	-13.42
675.788	2.78
675.798	-2.02
675.809	48.58
675.819	69.78
675.829	11.58
675.84	0.78
675.85	33.38
675.861	24.78
675.871	21.78
675.882	-0.82
675.892	27.38
675.903	27.98
675.913	-4.82
675.924	0.38
675.934	-0.82
675.944	8.38
675.955	0.58
675.965	-18.02
675.976	27.58
675.986	53.18
675.997	-19.62
676.007	11.58
676.018	39.78
676.028	18.38
676.038	-15.02
676.049	-13.22
676.059	5.18
676.07	14.18
676.08	28.58
676.09	9.58
676.101	-4.82
676.111	-4.62
676.122	-8.82
676.132	-0.82
676.142	27.78
676.153	-0.02
676.163	-32.22
676.174	-20.22
676.184	-22.22
676.194	15.18
676.205	-20.22
676.215	-23.62
676.226	7.58
676.236	34.38
676.246	6.58
676.257	-21.82
676.267	-15.02
676.277	-9.82
676.288	15.78
676.298	-0.02
676.308	19.38
676.319	-18.02
676.329	-11.82
676.34	16.78
676.35	34.38
676.36	4.38
676.371	-22.82
676.381	-26.02
676.391	-21.22
676.402	2.38
676.412	16.18
676.422	-3.82
676.433	23.98
676.443	52.58
676.453	5.58
676.464	-25.62
676.474	13.58
676.484	28.38
676.494	-6.62
676.505	10.58
676.515	30.78
676.525	46.98
676.536	-3.42
676.546	8.58
676.556	31.18
676.567	1.78
676.577	-13.02
676.587	15.98
676.597	29.18
676.608	2.58
676.618	-19.42
676.628	-17.22
676.639	-23.22
676.649	-18.62
676.659	-17.82
676.669	-29.22
676.68	2.78
676.69	39.78
676.7	25.38
676.71	3.18
676.721	78.38
676.731	43.58
676.741	-5.02
676.751	12.58
676.762	55.58
676.772	-0.82
676.782	-44.22
676.792	-11.82
676.803	33.78
676.813	-23.82
676.823	-42.82
676.833	10.38
676.844	50.98
676.854	-31.62
676.864	-12.22
676.874	-6.62
676.885	29.98
676.895	30.98
676.905	-52.22
676.915	-36.62
676.925	-1.42
676.936	17.18
676.946	-14.82
676.956	-34.62
676.966	-25.62
676.976	-23.02
676.987	-25.82
676.997	-22.62
677.007	18.18
677.017	47.98
677.027	4.18
677.038	1.58
677.048	13.98
677.058	-15.22
677.068	-43.62
677.078	-35.82
677.088	19.18
677.099	-15.42
677.109	-35.42
677.119	-10.02
677.129	32.18
677.139	17.18
677.149	-31.82
677.16	-36.42
677.17	13.58
677.18	3.38
677.19	-28.82
677.2	-40.42
677.21	-23.22
677.22	-9.42
677.231	-43.82
677.241	-42.22
677.251	7.18
677.261	13.18
677.271	-23.22
677.281	-34.82
677.291	5.38
677.301	-7.42
677.312	-4.42
677.322	78.58
677.332	-4.62
677.342	-13.42
677.352	-26.62
677.362	1.58
677.372	44.98
677.382	41.38
677.392	24.58
677.402	-15.02
677.413	-11.82
677.423	-7.62
677.433	-29.82
677.443	-26.62
677.453	19.78
677.463	-19.22
677.473	-52.02
677.483	-39.42
677.493	9.18
677.503	2.78
677.513	-20.62
677.523	-11.22
677.533	35.58
677.544	4.98
677.554	-33.22
677.564	-0.42
677.574	62.58
677.584	12.18
677.594	-54.02
677.604	-44.62
677.614	10.58
677.624	-2.22
677.634	-26.62
677.644	19.98
677.654	52.18
677.664	16.78
677.674	-29.02
677.684	-19.42
677.694	13.78
677.704	-1.22
677.714	-40.22
677.724	-35.82
677.734	8.18
677.744	-14.82
677.754	-39.02
677.764	-18.62
677.774	27.38
677.784	33.38
677.794	-31.62
677.804	6.18
677.814	12.78
677.824	-24.22
677.834	-49.82
677.844	-23.82
677.854	22.98
677.864	25.78
677.874	-37.22
677.884	-19.82
677.894	28.58
677.904	5.38
677.914	-18.02
677.924	5.98
677.934	66.18
677.944	27.38
677.954	-39.62
677.964	-21.02
677.974	17.38
677.984	-3.82
677.994	-33.02
678.004	-15.62
678.014	-8.42
678.024	-11.42
678.033	-28.22
678.043	-23.02
678.053	-4.62
678.063	-9.02
678.073	-39.42
678.083	-22.22
678.093	44.78
678.103	11.38
678.113	-33.22
678.123	-14.62
678.133	3.78
678.143	-11.02
678.153	-15.22
678.162	-13.82
678.172	-1.62
678.182	-8.02
678.192	-37.22
678.202	-39.22
678.212	-9.62
678.222	21.38
678.232	-9.22
678.242	-15.62
678.252	19.58
678.261	39.18
678.271	-3.82
678.281	-3.02
678.291	44.18
678.301	11.38
678.311	-39.22
678.321	-22.62
678.331	22.18
678.34	0.18
678.35	-48.62
678.36	-20.82
678.37	6.98
678.38	2.58
678.39	-46.82
678.4	-23.02
678.409	3.38
678.419	-14.62
678.429	-48.82
678.439	-3.82
678.449	14.58
678.459	13.58
678.468	-21.22
678.478	-35.22
678.488	1.78
678.498	33.18
678.508	-9.42
678.518	-9.42
678.527	39.58
678.537	12.38
678.547	-43.82
678.557	-49.82
678.567	-17.42
678.576	-24.82
678.586	-51.42
678.596	-3.42
678.606	15.18
678.616	-40.42
678.625	-39.42
678.635	15.98
678.645	33.98
678.655	-14.62
678.665	-26.22
678.674	-9.82
678.684	18.58
678.694	-2.42
678.704	-32.62
678.713	-0.62
678.723	36.58
678.733	16.98
678.743	-41.42
678.752	-41.42
678.762	-3.42
678.772	10.78
678.782	-29.42
678.791	-12.62
678.801	22.18
678.811	-15.82
678.821	-48.62
678.83	-12.82
678.84	22.78
678.85	-18.42
678.86	-35.82
678.869	-14.82
678.879	34.58
678.889	19.38
678.899	-24.62
678.908	-15.82
678.918	0.18
678.928	-6.02
678.937	-47.42
678.947	-20.22
678.957	3.18
678.967	3.38
678.976	-28.22
678.986	6.18
678.996	-8.42
679.005	-25.82
679.015	-36.42
679.025	-37.82
679.034	-10.42
679.044	23.98
679.054	-17.22
679.063	-26.82
679.073	-3.02
679.083	4.18
679.093	-32.22
679.102	-10.22
679.112	3.78
679.122	-22.22
679.131	-30.02
679.141	-28.22
679.151	0.58
679.16	-11.62
679.17	-56.02
679.179	-4.02
679.189	27.98
679.199	-32.82
679.208	-33.02
679.218	-17.62
679.228	26.78
679.237	4.98
679.247	-33.02
679.257	-33.82
679.266	1.98
679.276	7.58
679.285	-49.82
679.295	-21.42
679.305	-5.02
679.314	-30.42
679.324	-37.62
679.334	-28.62
679.343	53.58
679.353	59.98
679.362	-47.62
679.372	-9.62
679.382	41.18
679.391	-11.42
679.401	16.98
679.41	-19.42
679.42	-1.22
679.43	-1.62
679.439	-40.82
679.449	-9.62
679.458	49.78
679.468	3.58
679.477	-46.82
679.487	-24.22
679.497	24.38
679.506	16.58
679.516	-32.42
679.525	-22.42
679.535	35.58
679.544	-0.62
679.554	-38.22
679.564	-14.62
679.573	20.78
679.583	1.78
679.592	-32.42
679.602	-6.82
679.611	47.18
679.621	0.78
679.63	-50.02
679.64	-7.22
679.649	36.98
679.659	6.18
679.669	-40.22
679.678	-5.62
679.688	40.18
679.697	37.38
679.707	14.18
679.716	10.18
679.726	60.18
679.735	26.98
679.745	-40.82
679.754	-30.22
679.764	30.98
679.773	28.18
679.783	-25.42
679.792	-13.62
679.802	23.58
679.811	-3.42
679.821	-31.02
679.83	1.58
679.84	40.98
679.849	4.38
679.859	-20.62
679.868	-26.62
679.877	14.78
679.887	-14.42
679.896	-43.62
679.906	-21.02
679.915	29.58
679.925	12.18
679.934	-24.02
679.944	3.38
679.953	42.18
679.963	14.78
679.972	-34.62
679.982	-16.42
679.991	-1.42
680	-12.02
680.01	-45.82
680.019	-33.02
680.029	0.18
680.038	39.18
680.048	-34.82
680.057	-20.42
680.066	5.38
680.076	-23.22
680.085	-47.42
680.095	-23.02
680.104	-7.82
680.114	-32.62
680.123	-36.42
680.132	-14.62
680.142	50.78
680.151	8.58
680.161	-45.42
680.17	-13.22
680.179	29.38
680.189	20.98
680.198	-51.62
680.208	-32.82
680.217	3.58
