Data from h2d2-3_HR4C25001_18-07-14-939.txt Node
Date: Thu Aug 31 18:07:14 CDT 2023
User: kk37594
Spectrometer: HR4C2500
Trigger mode: 4
Integration Time (sec): 2.500000E-1
Scans to average: 5
Electric dark correction enabled: true
Nonlinearity correction enabled: false
Boxcar width: 0
XAxis mode: Wavelengths
Number of Pixels in Spectrum: 3648
>>>>>Begin Spectral Data<<<<<
629.667	-148.14
629.685	-148.14
629.703	-148.14
629.722	-148.54
629.74	-107.94
629.758	-12.34
629.776	7.46
629.795	39.46
629.813	13.26
629.831	-27.34
629.85	9.46
629.868	17.26
629.886	34.06
629.905	-46.34
629.923	-25.94
629.941	-9.74
629.96	6.26
629.978	-5.54
629.996	-5.74
630.014	54.46
630.033	44.86
630.051	29.26
630.069	16.26
630.088	45.86
630.106	23.06
630.124	-19.94
630.142	-8.54
630.161	-18.74
630.179	-13.14
630.197	-10.74
630.216	58.06
630.234	220.26
630.252	74.86
630.27	39.66
630.289	33.86
630.307	17.66
630.325	13.26
630.343	12.46
630.362	35.26
630.38	70.66
630.398	16.46
630.416	-9.14
630.435	-15.54
630.453	8.26
630.471	34.66
630.489	8.06
630.507	22.86
630.526	17.86
630.544	17.46
630.562	5.06
630.58	7.66
630.599	24.46
630.617	10.26
630.635	-5.34
630.653	15.26
630.671	32.06
630.69	0.66
630.708	13.66
630.726	22.26
630.744	15.66
630.762	-14.54
630.781	-11.94
630.799	10.26
630.817	39.06
630.835	50.06
630.853	5.26
630.871	2.06
630.89	25.06
630.908	5.06
630.926	-34.14
630.944	24.46
630.962	83.86
630.98	109.86
630.999	26.86
631.017	15.26
631.035	6.46
631.053	-9.14
631.071	12.06
631.089	9.46
631.108	0.46
631.126	20.26
631.144	7.26
631.162	20.26
631.18	36.86
631.198	23.26
631.216	0.66
631.234	-16.54
631.253	1.06
631.271	7.46
631.289	-0.74
631.307	11.46
631.325	17.26
631.343	33.46
631.361	6.66
631.379	18.86
631.398	19.46
631.416	13.66
631.434	-6.34
631.452	2.86
631.47	-20.54
631.488	-9.54
631.506	-24.94
631.524	-19.54
631.542	14.86
631.56	12.26
631.578	18.46
631.597	-0.34
631.615	-34.14
631.633	-14.34
631.651	3.26
631.669	-5.74
631.687	44.46
631.705	55.66
631.723	19.06
631.741	2.26
631.759	12.06
631.777	7.86
631.795	13.06
631.813	15.66
631.831	12.46
631.849	43.46
631.867	17.66
631.885	13.26
631.903	34.66
631.922	-6.94
631.94	-9.14
631.958	6.46
631.976	28.26
631.994	-6.74
632.012	-17.74
632.03	11.86
632.048	49.86
632.066	41.06
632.084	1.46
632.102	3.86
632.12	-14.94
632.138	-4.14
632.156	23.86
632.174	-9.34
632.192	-17.94
632.21	-3.14
632.228	-26.74
632.246	-14.14
632.264	17.46
632.282	37.06
632.3	-7.14
632.318	1.66
632.336	16.06
632.354	14.06
632.372	-5.54
632.39	2.26
632.408	7.06
632.426	-17.14
632.443	17.46
632.461	1.86
632.479	5.26
632.497	4.26
632.515	-4.34
632.533	25.26
632.551	31.66
632.569	16.86
632.587	-13.74
632.605	-13.74
632.623	9.26
632.641	29.26
632.659	-36.74
632.677	-16.14
632.695	0.46
632.713	-0.14
632.731	7.66
632.748	16.26
632.766	36.46
632.784	41.46
632.802	14.26
632.82	30.66
632.838	11.46
632.856	-4.94
632.874	14.86
632.892	4.46
632.91	0.66
632.928	9.66
632.945	-6.14
632.963	13.06
632.981	23.66
632.999	14.06
633.017	-2.94
633.035	11.46
633.053	3.26
633.071	0.06
633.089	-20.14
633.106	7.86
633.124	52.66
633.142	9.26
633.16	26.66
633.178	28.06
633.196	42.46
633.214	31.86
633.231	22.06
633.249	-20.34
633.267	3.26
633.285	15.86
633.303	-19.94
633.321	-13.14
633.339	31.66
633.356	52.86
633.374	16.26
633.392	2.66
633.41	-1.34
633.428	25.06
633.446	-5.94
633.463	-24.54
633.481	-12.34
633.499	-15.94
633.517	-1.54
633.535	-1.54
633.552	25.86
633.57	-0.34
633.588	-23.54
633.606	-27.94
633.624	16.66
633.641	16.26
633.659	-11.74
633.677	-19.74
633.695	-3.74
633.713	31.06
633.73	10.86
633.748	-14.94
633.766	2.46
633.784	12.46
633.802	-8.34
633.819	-9.74
633.837	-3.14
633.855	-51.54
633.873	-55.54
633.89	-28.14
633.908	16.26
633.926	3.86
633.944	-16.54
633.961	3.46
633.979	25.86
633.997	-35.34
634.015	0.86
634.032	34.26
634.05	47.06
634.068	-12.54
634.086	15.26
634.103	16.86
634.121	11.46
634.139	34.46
634.157	9.46
634.174	-1.34
634.192	-5.34
634.21	2.86
634.227	18.66
634.245	24.06
634.263	41.46
634.281	62.26
634.298	13.66
634.316	10.06
634.334	13.66
634.351	-5.34
634.369	-24.14
634.387	5.66
634.404	19.66
634.422	-9.74
634.44	-4.74
634.458	-12.74
634.475	38.26
634.493	59.66
634.511	-10.74
634.528	2.86
634.546	18.86
634.564	14.06
634.581	-34.34
634.599	11.06
634.617	20.06
634.634	9.26
634.652	-24.14
634.67	-8.34
634.687	38.66
634.705	16.66
634.723	-10.74
634.74	29.26
634.758	10.66
634.775	3.26
634.793	-14.34
634.811	33.26
634.828	31.26
634.846	1.66
634.864	-7.94
634.881	34.26
634.899	8.06
634.917	5.66
634.934	-4.94
634.952	18.46
634.969	24.06
634.987	27.86
635.005	-9.54
635.022	26.26
635.04	29.66
635.057	12.26
635.075	-9.34
635.093	13.86
635.11	30.66
635.128	25.66
635.145	-11.74
635.163	25.66
635.181	18.06
635.198	28.86
635.216	7.06
635.233	0.46
635.251	39.06
635.268	5.46
635.286	-5.54
635.304	-9.34
635.321	-5.14
635.339	-27.14
635.356	-35.34
635.374	-13.94
635.391	-3.14
635.409	-7.54
635.426	11.66
635.444	11.06
635.462	-3.54
635.479	-0.74
635.497	2.66
635.514	18.06
635.532	23.26
635.549	17.86
635.567	-15.74
635.584	2.06
635.602	62.66
635.619	59.66
635.637	-17.74
635.654	6.06
635.672	3.26
635.689	16.66
635.707	-3.54
635.724	-0.54
635.742	-17.34
635.759	-22.94
635.777	-21.94
635.795	6.66
635.812	51.46
635.829	10.06
635.847	-28.54
635.864	0.66
635.882	15.66
635.899	25.26
635.917	-3.74
635.934	-6.34
635.952	0.66
635.969	-6.74
635.987	26.06
636.004	84.26
636.022	37.46
636.039	-12.94
636.057	-0.94
636.074	8.06
636.092	18.26
636.109	-6.54
636.127	0.26
636.144	4.46
636.161	54.66
636.179	8.06
636.196	-16.94
636.214	-13.54
636.231	10.66
636.249	-16.14
636.266	-15.94
636.283	11.46
636.301	25.66
636.318	9.86
636.336	-10.94
636.353	-0.34
636.371	25.26
636.388	1.26
636.405	12.46
636.423	20.26
636.44	29.06
636.458	-8.54
636.475	-24.94
636.492	-27.34
636.51	-16.54
636.527	3.86
636.545	-5.34
636.562	-1.94
636.579	-16.14
636.597	-32.74
636.614	-12.34
636.632	2.46
636.649	56.86
636.666	42.66
636.684	-4.54
636.701	-28.54
636.718	-22.54
636.736	-8.34
636.753	6.06
636.771	20.06
636.788	38.86
636.805	7.46
636.823	-23.74
636.84	-15.74
636.857	-13.54
636.875	-28.74
636.892	-17.94
636.909	32.26
636.927	39.66
636.944	-5.34
636.961	-33.34
636.979	-17.54
636.996	8.66
637.013	2.66
637.031	-10.14
637.048	-27.94
637.065	4.86
637.083	-1.54
637.1	-20.94
637.117	-18.54
637.135	23.86
637.152	42.46
637.169	7.26
637.187	-6.54
637.204	36.06
637.221	19.06
637.238	-11.94
637.256	27.66
637.273	17.06
637.29	29.06
637.308	-4.14
637.325	-1.54
637.342	24.06
637.359	51.86
637.377	33.06
637.394	64.46
637.411	22.46
637.428	28.46
637.446	-17.34
637.463	10.46
637.48	75.46
637.498	23.06
637.515	-8.54
637.532	14.66
637.549	-3.54
637.567	-6.74
637.584	-6.74
637.601	-0.54
637.618	32.06
637.636	25.26
637.653	-9.74
637.67	-11.14
637.687	12.46
637.704	6.86
637.722	0.46
637.739	13.66
637.756	51.26
637.773	22.66
637.791	-12.74
637.808	15.26
637.825	19.66
637.842	22.86
637.859	-5.14
637.877	5.86
637.894	14.06
637.911	-5.34
637.928	-13.74
637.945	11.86
637.963	45.26
637.98	28.86
637.997	15.66
638.014	-10.74
638.031	6.26
638.049	18.86
638.066	-28.34
638.083	-4.74
638.1	17.46
638.117	9.46
638.134	-14.94
638.152	-8.74
638.169	-22.34
638.186	-6.94
638.203	-31.14
638.22	-52.54
638.237	-40.74
638.255	-26.94
638.272	-19.54
638.289	-13.34
638.306	-10.54
638.323	11.86
638.34	15.66
638.357	19.86
638.374	53.46
638.392	-2.74
638.409	-23.94
638.426	-5.94
638.443	7.06
638.46	-7.34
638.477	-0.94
638.494	17.46
638.511	26.86
638.529	24.46
638.546	-21.54
638.563	-8.74
638.58	18.46
638.597	9.06
638.614	-5.34
638.631	-3.74
638.648	15.06
638.665	9.66
638.682	-5.54
638.7	6.06
638.717	37.06
638.734	9.26
638.751	1.06
638.768	8.46
638.785	13.86
638.802	-13.14
638.819	-6.74
638.836	13.26
638.853	41.06
638.87	-2.54
638.887	-32.94
638.904	1.06
638.921	37.66
638.939	35.46
638.956	19.26
638.973	-0.94
638.99	29.66
639.007	34.26
639.024	7.46
639.041	28.26
639.058	39.06
639.075	14.26
639.092	23.46
639.109	-33.74
639.126	-40.34
639.143	-19.74
639.16	-20.94
639.177	31.66
639.194	68.66
639.211	62.86
639.228	36.86
639.245	-0.94
639.262	6.06
639.279	-1.34
639.296	2.26
639.313	15.46
639.33	-3.14
639.347	20.66
639.364	-1.34
639.381	1.66
639.398	27.86
639.415	19.86
639.432	2.66
639.449	-0.94
639.466	36.26
639.483	33.46
639.5	10.86
639.517	-0.34
639.534	-21.74
639.551	-28.34
639.568	-43.54
639.585	-16.14
639.602	20.26
639.619	6.06
639.636	6.26
639.653	20.86
639.669	-17.34
639.686	-3.14
639.703	13.26
639.72	12.46
639.737	16.26
639.754	31.66
639.771	31.46
639.788	50.66
639.805	74.26
639.822	18.06
639.839	-5.14
639.856	6.86
639.873	20.26
639.89	32.26
639.906	-23.54
639.923	-9.54
639.94	17.66
639.957	21.86
639.974	1.26
639.991	15.46
640.008	30.66
640.025	16.86
640.042	-4.94
640.059	1.06
640.075	11.46
640.092	23.26
640.109	14.06
640.126	15.86
640.143	-3.34
640.16	4.46
640.177	-0.74
640.194	-19.34
640.21	-5.14
640.227	15.46
640.244	4.06
640.261	21.06
640.278	42.26
640.295	8.26
640.312	-30.74
640.328	-10.14
640.345	27.06
640.362	6.46
640.379	-2.34
640.396	40.86
640.413	76.86
640.43	2.66
640.446	-38.14
640.463	-2.14
640.48	-6.54
640.497	-19.94
640.514	-25.94
640.531	-8.54
640.547	21.26
640.564	14.86
640.581	27.66
640.598	34.66
640.615	5.86
640.631	8.86
640.648	-14.74
640.665	-3.74
640.682	45.06
640.699	-8.34
640.715	-4.14
640.732	-4.74
640.749	-1.94
640.766	32.66
640.783	24.46
640.799	17.86
640.816	30.26
640.833	11.66
640.85	7.06
640.866	27.06
640.883	72.66
640.9	19.26
640.917	-2.94
640.933	-24.34
640.95	-9.94
640.967	8.46
640.984	-9.94
641.001	-17.34
641.017	-7.74
641.034	-17.34
641.051	-10.54
641.068	-12.34
641.084	31.46
641.101	0.66
641.118	11.46
641.134	-6.34
641.151	-2.34
641.168	-2.14
641.185	-17.54
641.201	33.86
641.218	39.66
641.235	5.26
641.252	3.06
641.268	19.86
641.285	13.86
641.302	12.86
641.318	-27.34
641.335	-17.34
641.352	0.26
641.368	23.46
641.385	9.66
641.402	13.46
641.419	26.26
641.435	18.26
641.452	49.46
641.469	19.66
641.485	5.86
641.502	7.06
641.519	-14.94
641.535	9.66
641.552	54.86
641.569	57.86
641.585	-2.54
641.602	-0.94
641.619	23.26
641.635	-12.34
641.652	-11.74
641.669	11.26
641.685	33.06
641.702	33.66
641.719	25.26
641.735	29.46
641.752	15.46
641.769	-1.54
641.785	-23.14
641.802	-18.34
641.818	28.46
641.835	46.86
641.852	20.66
641.868	20.06
641.885	26.86
641.902	-1.74
641.918	-8.74
641.935	9.66
641.951	12.26
641.968	-12.14
641.985	-39.14
642.001	2.66
642.018	23.06
642.034	17.86
642.051	-5.54
642.068	-22.54
642.084	9.86
642.101	8.06
642.117	10.06
642.134	7.26
642.151	19.06
642.167	7.66
642.184	-10.14
642.2	21.46
642.217	60.26
642.233	46.86
642.25	5.06
642.267	16.46
642.283	37.06
642.3	8.26
642.316	-27.54
642.333	7.46
642.349	0.26
642.366	-31.94
642.382	-43.54
642.399	141.06
642.416	362.66
642.432	55.26
642.449	-36.74
642.465	-3.74
642.482	29.26
642.498	9.86
642.515	10.46
642.531	-12.34
642.548	14.86
642.564	38.86
642.581	18.26
642.597	4.66
642.614	33.46
642.63	46.66
642.647	7.86
642.663	21.26
642.68	8.46
642.696	31.26
642.713	-5.34
642.729	14.06
642.746	46.86
642.762	12.06
642.779	-3.14
642.795	-23.94
642.812	-23.54
642.828	-32.54
642.845	-23.54
642.861	-8.54
642.878	-16.14
642.894	2.26
642.911	40.66
642.927	-8.34
642.944	11.66
642.96	57.46
642.977	12.86
642.993	18.46
643.01	23.46
643.026	4.86
643.042	-14.54
643.059	0.86
643.075	-6.94
643.092	-25.74
643.108	-32.14
643.125	-13.94
643.141	1.26
643.158	-6.74
643.174	2.66
643.19	62.46
643.207	64.06
643.223	7.06
643.24	14.86
643.256	6.06
643.272	2.66
643.289	2.06
643.305	5.66
643.322	17.46
643.338	12.06
643.355	10.86
643.371	24.26
643.387	7.46
643.404	-0.54
643.42	-2.14
643.437	17.06
643.453	48.86
643.469	28.06
643.486	3.86
643.502	19.86
643.518	16.46
643.535	-0.34
643.551	18.86
643.568	-2.94
643.584	8.46
643.6	4.66
643.617	12.26
643.633	-0.14
643.649	13.46
643.666	13.26
643.682	1.66
643.698	8.86
643.715	-9.74
643.731	6.06
643.748	-3.74
643.764	1.06
643.78	2.26
643.797	38.66
643.813	33.46
643.829	29.66
643.846	2.66
643.862	54.46
643.878	52.06
643.895	23.46
643.911	24.86
643.927	35.66
643.943	35.86
643.96	-25.94
643.976	-26.14
643.992	24.46
644.009	41.66
644.025	7.06
644.041	15.46
644.058	35.06
644.074	38.66
644.09	13.06
644.106	18.66
644.123	25.66
644.139	12.46
644.155	5.26
644.172	2.26
644.188	53.66
644.204	32.86
644.22	18.46
644.237	20.86
644.253	20.86
644.269	25.26
644.286	17.86
644.302	8.26
644.318	19.86
644.334	32.86
644.351	36.26
644.367	19.26
644.383	23.86
644.399	26.06
644.416	23.26
644.432	14.06
644.448	1.26
644.464	7.06
644.481	21.06
644.497	25.26
644.513	47.06
644.529	34.26
644.545	45.66
644.562	33.66
644.578	56.66
644.594	50.46
644.61	38.26
644.627	36.66
644.643	59.26
644.659	50.26
644.675	24.46
644.691	41.26
644.708	72.26
644.724	83.26
644.74	60.26
644.756	80.46
644.772	111.46
644.789	129.66
644.805	99.06
644.821	89.46
644.837	126.46
644.853	157.26
644.869	152.26
644.886	176.26
644.902	216.46
644.918	219.46
644.934	187.26
644.95	209.66
644.966	176.06
644.983	169.06
644.999	145.46
645.015	123.26
645.031	154.46
645.047	168.06
645.063	162.86
645.079	261.86
645.096	404.86
645.112	223.66
645.128	220.26
645.144	188.66
645.16	186.06
645.176	136.46
645.192	93.46
645.209	111.06
645.225	103.66
645.241	116.06
645.257	99.06
645.273	79.06
645.289	86.46
645.305	55.26
645.321	61.66
645.337	65.26
645.354	76.86
645.37	43.06
645.386	58.26
645.402	69.66
645.418	77.06
645.434	65.26
645.45	85.26
645.466	100.66
645.482	102.06
645.498	109.66
645.514	77.66
645.531	100.86
645.547	126.46
645.563	137.26
645.579	117.26
645.595	131.46
645.611	132.86
645.627	142.86
645.643	141.46
645.659	137.06
645.675	139.86
645.691	113.06
645.707	91.46
645.723	84.46
645.739	115.66
645.755	101.86
645.771	64.66
645.787	83.66
645.803	124.06
645.819	142.46
645.835	61.66
645.852	99.06
645.868	90.46
645.884	57.86
645.9	41.46
645.916	55.46
645.932	37.46
645.948	48.66
645.964	36.06
645.98	53.86
645.996	81.46
646.012	83.66
646.028	44.26
646.044	40.86
646.06	30.26
646.076	18.66
646.092	29.06
646.108	15.66
646.124	49.66
646.14	50.86
646.156	18.66
646.172	43.86
646.188	56.06
646.203	22.46
646.219	-2.94
646.235	63.46
646.251	92.86
646.267	28.46
646.283	28.26
646.299	18.66
646.315	76.86
646.331	77.46
646.347	39.46
646.363	2.06
646.379	-4.74
646.395	-20.54
646.411	-1.14
646.427	9.86
646.443	-2.94
646.459	-6.94
646.475	20.86
646.491	19.06
646.506	10.46
646.522	-20.54
646.538	-8.34
646.554	-4.54
646.57	13.46
646.586	13.66
646.602	19.86
646.618	20.26
646.634	24.46
646.65	28.46
646.666	-7.94
646.682	-9.14
646.697	33.06
646.713	24.66
646.729	0.66
646.745	15.66
646.761	55.26
646.777	37.46
646.793	0.66
646.809	-2.94
646.824	-14.94
646.84	8.26
646.856	-0.54
646.872	8.66
646.888	34.46
646.904	1.66
646.92	-0.74
646.936	4.46
646.951	2.86
646.967	21.26
646.983	47.86
646.999	32.86
647.015	28.46
647.031	61.06
647.047	16.46
647.062	0.26
647.078	1.46
647.094	-5.34
647.11	-6.54
647.126	-6.54
647.142	26.66
647.157	64.86
647.173	6.86
647.189	-4.74
647.205	-21.14
647.221	-27.34
647.236	5.46
647.252	10.26
647.268	0.46
647.284	0.06
647.3	28.86
647.315	16.66
647.331	17.66
647.347	39.26
647.363	15.46
647.379	38.66
647.394	30.66
647.41	30.66
647.426	18.26
647.442	8.26
647.458	25.06
647.473	37.06
647.489	16.86
647.505	30.06
647.521	39.06
647.536	21.66
647.552	-9.74
647.568	-6.74
647.584	35.86
647.599	28.86
647.615	6.06
647.631	16.66
647.647	26.46
647.662	17.06
647.678	-12.74
647.694	-25.34
647.71	-3.54
647.725	-31.14
647.741	-26.34
647.757	-12.54
647.773	27.86
647.788	30.06
647.804	7.46
647.82	24.66
647.835	48.86
647.851	30.46
647.867	-2.54
647.883	5.46
647.898	28.26
647.914	45.86
647.93	28.66
647.945	0.66
647.961	29.06
647.977	39.66
647.993	5.66
648.008	25.86
648.024	45.46
648.04	3.26
648.055	0.46
648.071	1.06
648.087	15.06
648.102	-5.94
648.118	-6.54
648.134	-6.34
648.149	25.66
648.165	25.46
648.181	-1.54
648.196	-5.34
648.212	9.46
648.228	9.06
648.243	15.06
648.259	13.46
648.275	13.26
648.29	19.26
648.306	13.66
648.322	12.86
648.337	10.46
648.353	53.26
648.368	48.86
648.384	77.46
648.4	32.46
648.415	7.06
648.431	9.26
648.447	20.86
648.462	64.66
648.478	42.06
648.493	-9.54
648.509	16.86
648.525	44.66
648.54	-10.74
648.556	-11.34
648.572	32.46
648.587	26.86
648.603	12.06
648.618	27.86
648.634	25.86
648.65	43.66
648.665	35.06
648.681	4.26
648.696	32.46
648.712	81.46
648.727	75.26
648.743	60.26
648.759	68.46
648.774	78.86
648.79	25.26
648.805	-14.74
648.821	10.66
648.836	35.86
648.852	2.86
648.868	4.06
648.883	23.06
648.899	16.26
648.914	2.86
648.93	21.86
648.945	48.06
648.961	79.46
648.976	49.66
648.992	20.46
649.007	30.26
649.023	36.06
649.039	40.86
649.054	1.06
649.07	28.66
649.085	5.06
649.101	24.66
649.116	-3.94
649.132	27.66
649.147	28.66
649.163	23.06
649.178	12.06
649.194	22.26
649.209	76.06
649.225	52.86
649.24	40.66
649.256	66.06
649.271	55.26
649.287	30.06
649.302	17.66
649.318	12.86
649.333	-12.74
649.349	20.46
649.364	34.06
649.38	47.06
649.395	53.66
649.41	47.26
649.426	28.06
649.441	5.86
649.457	33.26
649.472	3.66
649.488	19.46
649.503	45.26
649.519	67.26
649.534	64.06
649.55	46.66
649.565	46.46
649.581	46.26
649.596	27.26
649.611	11.26
649.627	32.06
649.642	23.86
649.658	-0.34
649.673	29.26
649.689	36.06
649.704	48.26
649.719	66.06
649.735	33.86
649.75	60.26
649.766	43.86
649.781	46.26
649.796	4.46
649.812	23.06
649.827	55.06
649.843	20.46
649.858	26.26
649.874	3.06
649.889	31.86
649.904	33.06
649.92	16.06
649.935	-1.74
649.95	48.46
649.966	17.66
649.981	16.06
649.997	33.86
650.012	20.26
650.027	14.66
650.043	6.66
650.058	10.26
650.073	23.86
650.089	47.86
650.104	47.06
650.12	9.06
650.135	23.66
650.15	16.86
650.166	28.46
650.181	24.26
650.196	55.06
650.212	44.86
650.227	9.66
650.242	35.26
650.258	39.86
650.273	31.86
650.288	14.86
650.304	30.06
650.319	24.66
650.334	15.66
650.35	26.86
650.365	88.46
650.38	61.86
650.396	20.06
650.411	23.66
650.426	19.86
650.441	36.06
650.457	41.06
650.472	33.26
650.487	47.26
650.503	18.06
650.518	-1.74
650.533	18.26
650.549	53.46
650.564	60.66
650.579	35.66
650.594	26.46
650.61	37.26
650.625	52.46
650.64	47.46
650.656	6.06
650.671	6.06
650.686	38.46
650.701	54.46
650.717	38.66
650.732	63.26
650.747	55.26
650.762	40.26
650.778	36.46
650.793	35.26
650.808	50.66
650.823	41.26
650.839	25.46
650.854	32.06
650.869	56.86
650.884	83.06
650.9	30.06
650.915	30.86
650.93	16.86
650.945	26.66
650.96	36.26
650.976	34.26
650.991	32.26
651.006	17.46
651.021	16.86
651.037	33.66
651.052	41.26
651.067	-13.34
651.082	-1.34
651.097	9.46
651.113	18.66
651.128	5.66
651.143	37.46
651.158	23.46
651.173	40.06
651.189	74.66
651.204	8.86
651.219	4.06
651.234	59.86
651.249	63.26
651.264	31.66
651.28	25.86
651.295	23.66
651.31	67.66
651.325	-11.54
651.34	5.86
651.355	18.66
651.371	-1.54
651.386	-28.54
651.401	19.26
651.416	42.66
651.431	24.26
651.446	9.06
651.461	2.66
651.477	47.06
651.492	79.66
651.507	44.66
651.522	36.86
651.537	32.86
651.552	20.46
651.567	28.46
651.583	55.66
651.598	70.46
651.613	-2.74
651.628	31.46
651.643	36.46
651.658	30.46
651.673	35.26
651.688	26.66
651.703	47.46
651.719	86.86
651.734	96.26
651.749	20.86
651.764	39.06
651.779	55.86
651.794	42.86
651.809	20.86
651.824	62.46
651.839	44.86
651.854	60.66
651.869	55.06
651.884	63.26
651.9	45.46
651.915	28.06
651.93	27.06
651.945	62.86
651.96	60.66
651.975	55.66
651.99	51.06
652.005	22.86
652.02	49.66
652.035	89.46
652.05	115.26
652.065	223.66
652.08	65.86
652.095	41.26
652.11	89.46
652.125	67.26
652.14	60.06
652.155	62.66
652.17	79.06
652.185	52.46
652.2	86.46
652.215	84.06
652.23	39.46
652.245	61.26
652.261	96.26
652.276	93.06
652.291	71.46
652.306	64.06
652.321	85.46
652.336	69.46
652.351	40.06
652.366	58.46
652.381	99.66
652.396	103.46
652.41	69.66
652.425	100.06
652.44	117.26
652.455	64.26
652.47	77.46
652.485	76.46
652.5	47.86
652.515	42.06
652.53	65.66
652.545	65.66
652.56	72.66
652.575	56.46
652.59	94.86
652.605	140.46
652.62	96.26
652.635	55.86
652.65	55.86
652.665	65.06
652.68	102.66
652.695	111.06
652.71	63.86
652.725	70.06
652.74	104.26
652.755	98.66
652.769	113.46
652.784	83.46
652.799	98.46
652.814	111.46
652.829	90.46
652.844	84.26
652.859	72.06
652.874	94.66
652.889	110.06
652.904	106.06
652.919	70.26
652.934	93.86
652.948	101.66
652.963	101.66
652.978	85.66
652.993	94.26
653.008	111.46
653.023	92.26
653.038	103.06
653.053	100.86
653.068	87.06
653.082	89.86
653.097	98.46
653.112	111.46
653.127	96.46
653.142	131.46
653.157	169.66
653.172	108.86
653.186	118.06
653.201	119.46
653.216	143.46
653.231	147.46
653.246	91.66
653.261	73.86
653.276	143.06
653.29	156.06
653.305	106.86
653.32	97.86
653.335	74.46
653.35	73.66
653.365	106.06
653.379	91.66
653.394	94.06
653.409	98.26
653.424	92.26
653.439	96.86
653.454	94.06
653.468	78.86
653.483	73.46
653.498	97.26
653.513	137.86
653.528	136.46
653.542	109.06
653.557	84.06
653.572	111.46
653.587	129.26
653.602	104.66
653.616	96.66
653.631	85.46
653.646	85.26
653.661	102.66
653.675	104.26
653.69	99.26
653.705	96.26
653.72	97.66
653.735	98.06
653.749	116.86
653.764	131.66
653.779	123.26
653.794	134.86
653.808	144.46
653.823	128.86
653.838	132.46
653.853	170.26
653.867	118.26
653.882	102.86
653.897	138.66
653.912	163.86
653.926	187.06
653.941	162.46
653.956	146.26
653.971	107.66
653.985	119.86
654	143.46
654.015	149.86
654.029	172.66
654.044	196.26
654.059	171.66
654.074	187.06
654.088	330.06
654.103	548.06
654.118	229.66
654.132	210.46
654.147	193.66
654.162	178.06
654.177	180.66
654.191	152.86
654.206	156.66
654.221	212.06
654.235	216.86
654.25	268.46
654.265	353.06
654.279	300.46
654.294	265.06
654.309	253.86
654.323	280.06
654.338	272.66
654.353	255.26
654.367	245.86
654.382	259.46
654.397	229.66
654.411	255.26
654.426	262.26
654.441	278.86
654.455	258.86
654.47	262.66
654.485	285.46
654.499	312.86
654.514	325.66
654.528	323.86
654.543	311.26
654.558	332.26
654.572	326.06
654.587	342.06
654.602	328.86
654.616	322.86
654.631	343.66
654.645	364.86
654.66	340.06
654.675	353.86
654.689	408.26
654.704	405.66
654.719	394.46
654.733	385.86
654.748	421.86
654.762	404.66
654.777	422.46
654.792	402.66
654.806	401.26
654.821	431.26
654.835	408.06
654.85	410.26
654.864	405.46
654.879	399.66
654.894	395.46
654.908	403.46
654.923	412.26
654.937	422.86
654.952	428.66
654.966	436.26
654.981	473.86
654.996	467.26
655.01	499.06
655.025	469.26
655.039	494.46
655.054	501.26
655.068	513.66
655.083	545.06
655.097	547.06
655.112	531.46
655.126	540.66
655.141	565.46
655.156	605.86
655.17	608.66
655.185	634.66
655.199	712.26
655.214	813.26
655.228	922.46
655.243	1000.06
655.257	1090.86
655.272	1186.26
655.286	1255.26
655.301	1380.46
655.315	1453.06
655.33	1428.26
655.344	1385.46
655.359	1395.06
655.373	1503.66
655.388	1654.66
655.402	1898.46
655.417	2168.06
655.431	2438.26
655.446	2820.46
655.46	3393.26
655.475	4487.66
655.489	6870.46
655.504	12117.46
655.518	15565.06
655.532	15565.06
655.547	15565.06
655.561	15565.06
655.576	15565.06
655.59	15565.06
655.605	15565.06
655.619	15565.06
655.634	15565.06
655.648	15565.06
655.663	15565.06
655.677	15565.06
655.691	15565.06
655.706	15565.06
655.72	15565.06
655.735	15565.06
655.749	15565.06
655.764	15565.06
655.778	15565.06
655.792	15565.06
655.807	15565.06
655.821	15565.06
655.836	15565.06
655.85	15565.06
655.865	15565.06
655.879	15565.06
655.893	15565.06
655.908	15565.06
655.922	15565.06
655.937	15565.06
655.951	15565.06
655.965	15565.06
655.98	15565.06
655.994	15565.06
656.009	15565.06
656.023	15565.06
656.037	15565.06
656.052	15565.06
656.066	15565.06
656.08	15565.06
656.095	15565.06
656.109	15565.06
656.124	15565.06
656.138	15565.06
656.152	15565.06
656.167	15565.06
656.181	15565.06
656.195	15565.06
656.21	15565.06
656.224	15565.06
656.238	15565.06
656.253	15565.06
656.267	15565.06
656.281	15565.06
656.296	15565.06
656.31	15565.06
656.324	15565.06
656.339	15565.06
656.353	15565.06
656.367	15565.06
656.382	15565.06
656.396	15565.06
656.41	15565.06
656.425	15565.06
656.439	15565.06
656.453	15565.06
656.468	15565.06
656.482	15565.06
656.496	15565.06
656.51	15565.06
656.525	15565.06
656.539	15565.06
656.553	15565.06
656.568	15565.06
656.582	15565.06
656.596	15565.06
656.611	15565.06
656.625	15565.06
656.639	15565.06
656.653	15565.06
656.668	15565.06
656.682	15565.06
656.696	15565.06
656.71	15565.06
656.725	15565.06
656.739	15565.06
656.753	15565.06
656.767	15565.06
656.782	15565.06
656.796	15565.06
656.81	15565.06
656.824	15565.06
656.839	15565.06
656.853	15565.06
656.867	15565.06
656.881	15565.06
656.896	15565.06
656.91	15565.06
656.924	15565.06
656.938	15565.06
656.953	15565.06
656.967	15565.06
656.981	15565.06
656.995	15565.06
657.009	15565.06
657.024	15565.06
657.038	15565.06
657.052	15565.06
657.066	15565.06
657.08	15565.06
657.095	15565.06
657.109	15565.06
657.123	15565.06
657.137	15565.06
657.151	15565.06
657.166	15565.06
657.18	15565.06
657.194	15565.06
657.208	15565.06
657.222	15565.06
657.237	15565.06
657.251	15565.06
657.265	15565.06
657.279	15565.06
657.293	15565.06
657.307	15565.06
657.322	15565.06
657.336	15565.06
657.35	15565.06
657.364	15565.06
657.378	15565.06
657.392	15565.06
657.406	15565.06
657.421	15565.06
657.435	15565.06
657.449	15565.06
657.463	15565.06
657.477	15565.06
657.491	15565.06
657.505	15565.06
657.52	15565.06
657.534	15565.06
657.548	15565.06
657.562	15565.06
657.576	15565.06
657.59	15565.06
657.604	15565.06
657.618	15565.06
657.632	15565.06
657.647	15565.06
657.661	15565.06
657.675	15565.06
657.689	15565.06
657.703	15565.06
657.717	15565.06
657.731	15565.06
657.745	15565.06
657.759	15565.06
657.773	15565.06
657.787	15565.06
657.802	15565.06
657.816	15565.06
657.83	15565.06
657.844	15565.06
657.858	15565.06
657.872	15565.06
657.886	15565.06
657.9	15565.06
657.914	15565.06
657.928	15565.06
657.942	15565.06
657.956	15565.06
657.97	15565.06
657.984	15565.06
657.998	15565.06
658.012	15565.06
658.026	15565.06
658.04	15565.06
658.054	15565.06
658.069	15565.06
658.083	15565.06
658.097	15565.06
658.111	10918.46
658.125	1221.46
658.139	256.06
658.153	109.26
658.167	140.66
658.181	132.66
658.195	92.06
658.209	68.26
658.223	80.06
658.237	111.66
658.251	110.86
658.265	96.06
658.279	97.06
658.293	89.86
658.307	81.66
658.321	75.86
658.335	83.86
658.349	106.06
658.363	115.66
658.377	75.06
658.391	112.66
658.405	139.06
658.418	113.66
658.432	81.06
658.446	55.06
658.46	77.66
658.474	95.26
658.488	82.86
658.502	111.46
658.516	107.66
658.53	75.26
658.544	70.26
658.558	84.86
658.572	74.46
658.586	105.86
658.6	90.06
658.614	54.26
658.628	78.46
658.642	106.86
658.656	90.66
658.67	65.66
658.683	219.06
658.697	440.66
658.711	100.46
658.725	85.26
658.739	96.06
658.753	92.86
658.767	68.66
658.781	85.46
658.795	80.46
658.809	53.66
658.823	54.66
658.836	72.26
658.85	112.26
658.864	91.26
658.878	75.46
658.892	56.46
658.906	66.46
658.92	58.06
658.934	40.46
658.947	48.06
658.961	41.26
658.975	79.86
658.989	34.26
659.003	33.66
659.017	36.06
659.031	56.06
659.045	76.46
659.058	69.46
659.072	64.06
659.086	62.46
659.1	68.46
659.114	66.06
659.128	44.66
659.141	58.26
659.155	68.06
659.169	71.46
659.183	88.06
659.197	57.06
659.211	53.86
659.224	66.66
659.238	144.66
659.252	115.06
659.266	74.06
659.28	80.06
659.294	61.06
659.307	36.66
659.321	48.46
659.335	30.46
659.349	19.06
659.363	43.26
659.376	73.26
659.39	62.06
659.404	28.86
659.418	49.86
659.432	50.06
659.445	53.46
659.459	83.26
659.473	35.06
659.487	52.06
659.5	39.06
659.514	44.26
659.528	73.66
659.542	90.46
659.556	44.86
659.569	60.86
659.583	59.06
659.597	60.46
659.611	62.66
659.624	164.06
659.638	259.86
659.652	44.46
659.666	22.66
659.679	52.86
659.693	48.06
659.707	49.66
659.721	52.66
659.734	64.86
659.748	35.86
659.762	33.86
659.776	43.86
659.789	88.86
659.803	6.26
659.817	10.66
659.83	48.86
659.844	65.26
659.858	32.06
659.872	11.46
659.885	31.86
659.899	52.06
659.913	68.86
659.926	77.46
659.94	51.06
659.954	58.46
659.967	53.06
659.981	35.86
659.995	23.46
660.009	58.46
660.022	69.06
660.036	56.46
660.05	10.06
660.063	41.66
660.077	73.06
660.091	49.06
660.104	-0.94
660.118	44.06
660.132	61.86
660.145	27.46
660.159	28.46
660.173	43.26
660.186	48.86
660.2	7.26
660.214	-2.14
660.227	37.86
660.241	29.86
660.254	4.66
660.268	14.86
660.282	64.46
660.295	59.06
660.309	26.06
660.323	4.46
660.336	-7.14
660.35	-5.94
660.364	33.46
660.377	33.26
660.391	97.46
660.404	67.46
660.418	37.86
660.432	14.86
660.445	51.46
660.459	60.26
660.472	20.66
660.486	21.06
660.5	33.06
660.513	33.46
660.527	11.26
660.54	51.06
660.554	82.06
660.568	39.46
660.581	29.26
660.595	26.66
660.608	18.46
660.622	31.86
660.635	46.26
660.649	46.26
660.663	63.46
660.676	53.86
660.69	40.66
660.703	43.26
660.717	29.46
660.73	5.06
660.744	13.66
660.757	14.66
660.771	36.46
660.785	19.06
660.798	29.26
660.812	48.66
660.825	56.46
660.839	29.46
660.852	32.06
660.866	52.46
660.879	51.06
660.893	15.66
660.906	49.86
660.92	37.46
660.933	38.86
660.947	60.46
660.96	5.46
660.974	33.86
660.987	86.46
661.001	30.26
661.015	0.06
661.028	12.86
661.042	45.26
661.055	69.26
661.069	22.46
661.082	4.86
661.095	137.66
661.109	258.86
661.122	27.46
661.136	10.66
661.149	0.66
661.163	13.06
661.176	43.66
661.19	38.26
661.203	100.06
661.217	92.66
661.23	33.86
661.244	23.86
661.257	54.26
661.271	7.66
661.284	11.86
661.298	-11.14
661.311	12.06
661.324	29.06
661.338	7.66
661.351	-6.74
661.365	34.46
661.378	31.46
661.392	6.86
661.405	161.06
661.419	381.66
661.432	72.26
661.445	14.86
661.459	28.06
661.472	57.66
661.486	47.66
661.499	33.66
661.512	8.06
661.526	65.26
661.539	44.26
661.553	21.86
661.566	15.66
661.579	41.66
661.593	5.26
661.606	-7.14
661.62	14.86
661.633	33.86
661.646	32.26
661.66	-1.54
661.673	4.06
661.687	38.26
661.7	70.06
661.713	14.86
661.727	71.86
661.74	164.46
661.753	19.46
661.767	15.86
661.78	42.86
661.794	80.26
661.807	10.46
661.82	17.66
661.834	19.06
661.847	17.26
661.86	41.26
661.874	11.46
661.887	20.06
661.9	39.26
661.914	28.66
661.927	3.46
661.94	5.66
661.954	23.66
661.967	52.26
661.98	49.46
661.994	10.46
662.007	28.66
662.02	51.26
662.034	3.66
662.047	14.66
662.06	7.46
662.074	-0.94
662.087	-3.74
662.1	9.86
662.114	31.66
662.127	48.46
662.14	-27.14
662.153	8.26
662.167	46.06
662.18	6.86
662.193	6.26
662.207	5.46
662.22	19.06
662.233	21.86
662.246	-16.34
662.26	21.06
662.273	26.66
662.286	2.06
662.3	17.46
662.313	-3.34
662.326	-5.14
662.339	10.46
662.353	-3.74
662.366	-4.34
662.379	4.06
662.392	6.66
662.406	14.46
662.419	13.46
662.432	50.66
662.445	17.86
662.459	-20.74
662.472	-4.94
662.485	23.46
662.498	2.66
662.512	16.26
662.525	25.06
662.538	7.06
662.551	21.66
662.564	2.66
662.578	-2.54
662.591	36.66
662.604	44.06
662.617	6.46
662.63	15.86
662.644	26.46
662.657	11.46
662.67	16.26
662.683	21.66
662.696	7.66
662.71	13.06
662.723	9.06
662.736	19.66
662.749	50.06
662.762	23.86
662.776	9.86
662.789	34.46
662.802	63.26
662.815	54.06
662.828	10.06
662.841	-7.54
662.855	12.66
662.868	23.06
662.881	-14.54
662.894	-8.94
662.907	29.26
662.92	74.46
662.934	-11.74
662.947	-7.74
662.96	31.46
662.973	20.06
662.986	-21.34
662.999	-20.94
663.012	31.26
663.026	20.66
663.039	2.06
663.052	-2.94
663.065	27.06
663.078	29.06
663.091	21.06
663.104	-5.54
663.117	0.06
663.131	17.06
663.144	-3.94
663.157	-24.54
663.17	15.46
663.183	38.26
663.196	13.06
663.209	9.86
663.222	39.66
663.235	45.86
663.248	-12.74
663.262	-29.94
663.275	-13.54
663.288	9.46
663.301	-6.34
663.314	-0.74
663.327	25.66
663.34	42.46
663.353	-6.54
663.366	-15.14
663.379	34.46
663.392	56.06
663.405	-28.74
663.418	-42.54
663.431	4.06
663.445	17.26
663.458	-10.54
663.471	8.46
663.484	31.66
663.497	24.06
663.51	-23.74
663.523	-5.94
663.536	22.06
663.549	-20.54
663.562	-29.34
663.575	-31.54
663.588	-23.14
663.601	-5.74
663.614	-17.74
663.627	4.86
663.64	7.86
663.653	-4.14
663.666	-31.34
663.679	-22.34
663.692	56.06
663.705	67.66
663.718	-9.74
663.731	-25.14
663.744	-0.54
663.757	32.66
663.77	12.86
663.783	22.86
663.796	39.26
663.809	15.46
663.822	-7.94
663.835	-38.94
663.848	-6.54
663.861	-3.34
663.874	-10.14
663.887	-4.74
663.9	-0.94
663.913	-2.94
663.926	-7.94
663.939	-15.54
663.952	30.06
663.965	77.86
663.978	1.46
663.991	-35.94
664.004	-1.94
664.017	15.86
664.03	-9.34
664.042	8.66
664.055	9.06
664.068	6.26
664.081	-3.14
664.094	7.66
664.107	37.06
664.12	25.86
664.133	-8.94
664.146	-12.94
664.159	-1.34
664.172	-10.54
664.185	-20.74
664.198	-8.14
664.21	37.46
664.223	7.26
664.236	3.66
664.249	1.66
664.262	10.26
664.275	-4.94
664.288	11.06
664.301	20.86
664.314	1.06
664.327	3.86
664.339	-31.74
664.352	-10.14
664.365	5.66
664.378	7.46
664.391	11.46
664.404	29.06
664.417	34.06
664.43	12.46
664.442	-13.34
664.455	-13.74
664.468	10.46
664.481	8.06
664.494	10.66
664.507	-42.74
664.52	-13.54
664.532	14.86
664.545	-4.94
664.558	2.86
664.571	13.66
664.584	11.86
664.597	-29.34
664.609	-2.74
664.622	28.86
664.635	20.26
664.648	-1.34
664.661	-9.54
664.674	4.66
664.686	-11.34
664.699	-30.34
664.712	-9.94
664.725	-7.74
664.738	-9.54
664.751	3.86
664.763	3.06
664.776	-1.14
664.789	41.46
664.802	4.26
664.815	-26.34
664.827	-9.74
664.84	4.46
664.853	-39.34
664.866	-7.94
664.878	-11.74
664.891	-28.34
664.904	1.46
664.917	12.46
664.93	4.66
664.942	25.06
664.955	10.46
664.968	10.26
664.981	33.26
664.993	1.86
665.006	-6.14
665.019	18.66
665.032	22.66
665.044	13.06
665.057	5.86
665.07	-19.34
665.083	-37.74
665.095	-20.34
665.108	-12.14
665.121	-18.54
665.134	-16.14
665.146	30.26
665.159	1.26
665.172	-5.34
665.185	-4.14
665.197	2.46
665.21	-13.54
665.223	-9.34
665.235	76.86
665.248	157.26
665.261	2.66
665.274	-15.94
665.286	37.26
665.299	30.46
665.312	-21.94
665.324	31.46
665.337	31.86
665.35	9.06
665.362	-23.14
665.375	-18.34
665.388	18.06
665.4	38.26
665.413	2.46
665.426	-6.94
665.438	-18.54
665.451	-13.74
665.464	-10.94
665.476	4.66
665.489	29.86
665.502	11.66
665.514	-20.34
665.527	4.46
665.54	-10.14
665.552	-29.94
665.565	-29.54
665.578	-22.34
665.59	14.06
665.603	18.66
665.616	9.66
665.628	16.46
665.641	12.06
665.654	-19.14
665.666	-8.34
665.679	6.46
665.691	42.06
665.704	21.06
665.717	-23.94
665.729	-15.54
665.742	16.46
665.755	-26.94
665.767	-24.54
665.78	-17.14
665.792	40.26
665.805	14.46
665.818	-10.14
665.83	-32.14
665.843	23.46
665.855	-14.14
665.868	-19.14
665.881	4.86
665.893	39.86
665.906	-8.54
665.918	-22.34
665.931	-41.14
665.943	25.86
665.956	21.66
665.969	-33.34
665.981	-32.94
665.994	-53.14
666.006	-54.74
666.019	-30.34
666.031	10.06
666.044	29.26
666.057	31.46
666.069	8.26
666.082	-15.54
666.094	2.66
666.107	5.26
666.119	-13.54
666.132	-16.94
666.144	-4.74
666.157	-22.74
666.169	-24.74
666.182	-14.74
666.194	5.26
666.207	22.26
666.22	12.86
666.232	6.46
666.245	9.06
666.257	34.46
666.27	-13.54
666.282	-6.34
666.295	-0.74
666.307	-13.74
666.32	-17.54
666.332	2.66
666.345	12.06
666.357	22.66
666.37	24.46
666.382	13.86
666.395	32.26
666.407	0.66
666.42	-7.74
666.432	-4.54
666.445	19.66
666.457	-11.54
666.469	-12.74
666.482	-4.14
666.494	25.06
666.507	38.26
666.519	-12.14
666.532	-46.54
666.544	-21.14
666.557	19.46
666.569	-18.14
666.582	-4.54
666.594	30.06
666.607	23.46
666.619	-9.94
666.631	5.26
666.644	18.86
666.656	-4.74
666.669	-1.34
666.681	8.86
666.694	38.86
666.706	32.26
666.718	-6.94
666.731	-8.14
666.743	-4.54
666.756	21.06
666.768	-9.34
666.78	-30.74
666.793	-3.34
666.805	19.46
666.818	-12.34
666.83	-8.14
666.843	14.46
666.855	-16.34
666.867	-12.54
666.88	-33.14
666.892	-7.14
666.904	13.46
666.917	8.86
666.929	-17.94
666.942	62.06
666.954	120.66
666.966	-18.54
666.979	-24.34
666.991	-27.74
667.003	3.86
667.016	-0.94
667.028	2.06
667.041	-21.14
667.053	-9.14
667.065	-7.14
667.078	-25.34
667.09	14.86
667.102	26.26
667.115	-29.94
667.127	-20.74
667.139	1.46
667.152	41.86
667.164	0.66
667.176	-0.74
667.189	-16.94
667.201	-35.14
667.213	-32.34
667.226	-16.34
667.238	14.26
667.25	16.06
667.263	21.26
667.275	-9.94
667.287	13.26
667.3	35.86
667.312	20.46
667.324	16.46
667.337	9.46
667.349	23.86
667.361	-5.74
667.373	-41.14
667.386	-9.54
667.398	4.26
667.41	-20.14
667.423	45.46
667.435	47.26
667.447	18.86
667.459	0.86
667.472	7.46
667.484	25.46
667.496	-16.74
667.508	-31.94
667.521	11.86
667.533	4.46
667.545	8.86
667.558	-5.54
667.57	-1.14
667.582	-6.74
667.594	-7.34
667.607	9.26
667.619	7.66
667.631	60.46
667.643	52.66
667.655	-10.34
667.668	1.46
667.68	12.46
667.692	7.86
667.704	-10.14
667.717	-5.74
667.729	28.06
667.741	23.26
667.753	25.06
667.766	6.06
667.778	12.86
667.79	20.46
667.802	3.86
667.814	-16.94
667.827	24.26
667.839	39.26
667.851	-33.94
667.863	-38.94
667.875	-26.94
667.888	-10.54
667.9	-7.34
667.912	-14.34
667.924	-15.94
667.936	-6.54
667.948	-4.74
667.961	8.66
667.973	1.66
667.985	5.66
667.997	-21.34
668.009	-5.74
668.021	40.06
668.034	35.66
668.046	-11.54
668.058	-39.74
668.07	5.26
668.082	17.06
668.094	45.46
668.107	36.46
668.119	45.06
668.131	17.06
668.143	-0.34
668.155	9.26
668.167	29.46
668.179	31.46
668.192	-13.74
668.204	4.66
668.216	20.46
668.228	-1.54
668.24	3.46
668.252	26.26
668.264	45.66
668.276	-11.94
668.288	-9.54
668.301	-11.54
668.313	2.86
668.325	17.06
668.337	-23.94
668.349	-28.74
668.361	10.26
668.373	33.86
668.385	-10.94
668.397	-4.14
668.409	-16.94
668.422	10.46
668.434	-2.94
668.446	2.26
668.458	20.46
668.47	-6.34
668.482	-15.94
668.494	-2.14
668.506	46.06
668.518	23.86
668.53	9.06
668.542	1.86
668.554	14.26
668.566	21.26
668.578	-8.54
668.59	16.86
668.602	5.26
668.615	-14.74
668.627	-20.74
668.639	-4.14
668.651	21.26
668.663	33.46
668.675	-15.54
668.687	8.86
668.699	69.66
668.711	19.86
668.723	-1.94
668.735	6.66
668.747	9.46
668.759	6.26
668.771	-19.54
668.783	-31.94
668.795	7.66
668.807	21.86
668.819	-11.14
668.831	0.86
668.843	-9.34
668.855	35.66
668.867	-22.14
668.879	-7.54
668.891	38.26
668.903	41.06
668.915	-0.34
668.927	-5.74
668.939	15.26
668.951	15.06
668.963	-8.74
668.975	0.86
668.987	35.26
668.999	31.86
669.011	13.66
669.023	17.66
669.035	51.46
669.046	3.86
669.058	-3.54
669.07	8.86
669.082	10.26
669.094	-19.14
669.106	-29.14
669.118	9.26
669.13	41.86
669.142	37.46
669.154	34.06
669.166	12.66
669.178	8.66
669.19	-11.74
669.202	-30.94
669.214	-3.14
669.226	24.46
669.237	22.66
669.249	-0.74
669.261	-22.94
669.273	27.26
669.285	39.06
669.297	-2.14
669.309	9.26
669.321	34.46
669.333	49.26
669.345	-5.54
669.356	-14.54
669.368	-3.94
669.38	14.26
669.392	-19.54
669.404	-3.74
669.416	7.66
669.428	-5.54
669.44	-31.74
669.451	-29.34
669.463	1.86
669.475	27.46
669.487	-12.14
669.499	-3.94
669.511	39.46
669.523	13.26
669.535	0.46
669.546	-7.94
669.558	28.86
669.57	7.26
669.582	-28.34
669.594	-11.14
669.606	9.26
669.617	6.86
669.629	-16.94
669.641	-7.94
669.653	32.46
669.665	27.06
669.677	-6.14
669.688	-1.34
669.7	18.46
669.712	46.66
669.724	8.86
669.736	4.26
669.747	14.66
669.759	6.86
669.771	7.26
669.783	10.26
669.795	21.06
669.807	12.66
669.818	-24.94
669.83	10.06
669.842	12.06
669.854	0.66
669.865	-2.94
669.877	21.46
669.889	49.06
669.901	40.06
669.913	16.26
669.924	53.46
669.936	87.06
669.948	51.26
669.96	5.66
669.971	-9.54
669.983	6.86
669.995	28.06
670.007	9.66
670.018	20.46
670.03	43.86
670.042	0.06
670.054	2.66
670.065	-7.94
670.077	15.26
670.089	29.46
670.101	-1.74
670.112	7.06
670.124	42.26
670.136	30.46
670.148	-16.94
670.159	-14.74
670.171	8.66
670.183	-6.74
670.194	3.46
670.206	22.46
670.218	30.26
670.23	31.26
670.241	-8.74
670.253	18.86
670.265	75.66
670.276	50.46
670.288	8.86
670.3	5.46
670.312	10.26
670.323	-2.54
670.335	-14.34
670.347	-11.74
670.358	47.66
670.37	38.86
670.382	-2.74
670.393	-8.34
670.405	21.66
670.417	7.86
670.428	10.46
670.44	9.66
670.452	36.66
670.463	10.06
670.475	-17.14
670.487	2.06
670.498	25.66
670.51	21.46
670.522	-0.74
670.533	15.86
670.545	9.86
670.557	-6.74
670.568	16.06
670.58	-3.94
670.591	0.46
670.603	0.46
670.615	1.46
670.626	-5.14
670.638	10.06
670.65	36.86
670.661	1.66
670.673	-28.14
670.684	9.46
670.696	31.06
670.708	-10.34
670.719	19.26
670.731	85.66
670.742	69.66
670.754	15.86
670.766	29.66
670.777	45.06
670.789	14.46
670.8	-4.14
670.812	1.26
670.824	22.86
670.835	29.66
670.847	-17.54
670.858	-18.54
670.87	-1.54
670.881	13.66
670.893	-23.74
670.905	-27.54
670.916	-2.34
670.928	21.46
670.939	13.06
670.951	22.06
670.962	17.06
670.974	-6.14
670.986	-17.14
670.997	-16.74
671.009	-2.74
671.02	11.86
671.032	-19.54
671.043	-9.54
671.055	27.06
671.066	33.26
671.078	-2.54
671.089	-0.34
671.101	40.06
671.112	42.66
671.124	11.86
671.135	13.46
671.147	27.46
671.158	8.26
671.17	21.46
671.181	47.86
671.193	41.66
671.204	58.46
671.216	2.26
671.227	5.86
671.239	24.86
671.25	9.46
671.262	7.06
671.273	-4.14
671.285	18.66
671.296	2.86
671.308	-0.94
671.319	-1.94
671.331	7.26
671.342	32.06
671.354	25.06
671.365	10.66
671.377	-13.74
671.388	-18.54
671.4	-20.54
671.411	0.46
671.423	-2.34
671.434	18.86
671.446	31.26
671.457	19.86
671.468	35.26
671.48	41.06
671.491	3.46
671.503	40.26
671.514	34.26
671.526	23.46
671.537	7.86
671.548	-8.94
671.56	30.46
671.571	26.46
671.583	3.06
671.594	38.06
671.606	92.06
671.617	56.66
671.628	-2.54
671.64	11.26
671.651	11.86
671.663	2.26
671.674	-30.14
671.685	-19.14
671.697	-18.54
671.708	-18.34
671.72	8.06
671.731	-5.94
671.742	16.06
671.754	6.66
671.765	-8.94
671.777	-21.94
671.788	17.46
671.799	53.46
671.811	9.46
671.822	15.46
671.833	1.06
671.845	6.46
671.856	10.06
671.868	24.66
671.879	60.86
671.89	93.06
671.902	9.46
671.913	-18.54
671.924	-15.94
671.936	3.06
671.947	-9.54
671.958	1.66
671.97	60.86
671.981	36.46
671.992	7.06
672.004	-13.74
672.015	26.66
672.026	24.06
672.038	-2.14
672.049	4.86
672.06	0.46
672.072	-15.34
672.083	-11.74
672.094	-0.94
672.106	70.06
672.117	110.46
672.128	29.46
672.139	-2.14
672.151	10.66
672.162	9.06
672.173	-4.54
672.185	7.06
672.196	47.66
672.207	38.06
672.219	21.66
672.23	41.66
672.241	50.26
672.252	17.26
672.264	1.86
672.275	4.66
672.286	44.86
672.297	36.26
672.309	-8.54
672.32	-2.74
672.331	23.86
672.342	14.66
672.354	-18.14
672.365	-2.54
672.376	17.26
672.387	-8.34
672.399	-15.94
672.41	2.06
672.421	53.06
672.432	55.66
672.444	11.06
672.455	0.06
672.466	49.46
672.477	31.66
672.489	23.66
672.5	11.46
672.511	14.86
672.522	22.66
672.533	-7.34
672.545	7.26
672.556	51.26
672.567	16.86
672.578	-3.94
672.59	-2.54
672.601	15.26
672.612	6.86
672.623	5.06
672.634	10.66
672.646	26.86
672.657	21.86
672.668	-2.34
672.679	-10.34
672.69	1.86
672.701	-8.74
672.713	-18.14
672.724	-26.34
672.735	-2.14
672.746	18.06
672.757	-11.74
672.768	-5.34
672.78	25.86
672.791	6.06
672.802	-21.34
672.813	15.66
672.824	43.26
672.835	31.46
672.847	-7.94
672.858	-2.54
672.869	18.26
672.88	29.66
672.891	-13.74
672.902	14.06
672.913	14.06
672.925	2.66
672.936	-5.54
672.947	34.26
672.958	57.86
672.969	-2.14
672.98	4.66
672.991	28.46
673.002	22.66
673.013	0.66
673.025	-23.94
673.036	-5.94
673.047	31.26
673.058	-0.54
673.069	1.86
673.08	-3.14
673.091	10.66
673.102	-27.54
673.113	-8.34
673.124	23.06
673.136	56.06
673.147	31.66
673.158	-8.74
673.169	5.46
673.18	17.26
673.191	-0.54
673.202	-17.54
673.213	-9.54
673.224	28.46
673.235	35.06
673.246	-0.34
673.257	12.86
673.268	36.26
673.279	37.86
673.29	-0.74
673.301	21.66
673.313	34.66
673.324	18.46
673.335	-15.54
673.346	1.26
673.357	15.06
673.368	-17.34
673.379	-13.14
673.39	16.26
673.401	58.26
673.412	19.46
673.423	15.26
673.434	3.26
673.445	36.46
673.456	7.06
673.467	-22.94
673.478	18.86
673.489	56.86
673.5	18.46
673.511	-6.34
673.522	17.46
673.533	79.26
673.544	45.66
673.555	-9.14
673.566	20.06
673.577	29.66
673.588	0.46
673.599	18.26
673.61	2.66
673.621	51.66
673.632	94.06
673.643	6.06
673.654	-10.34
673.665	23.66
673.676	-7.74
673.687	-14.14
673.698	-9.74
673.709	35.46
673.719	37.46
673.73	36.26
673.741	75.86
673.752	79.86
673.763	88.66
673.774	-1.94
673.785	3.66
673.796	24.66
673.807	32.06
673.818	-14.14
673.829	23.26
673.84	67.66
673.851	40.26
673.862	-3.74
673.873	-3.94
673.883	40.06
673.894	25.26
673.905	4.46
673.916	14.06
673.927	23.46
673.938	37.86
673.949	-6.34
673.96	-8.34
673.971	18.86
673.982	24.26
673.993	3.06
674.003	1.86
674.014	10.86
674.025	8.86
674.036	-37.54
674.047	-22.94
674.058	19.46
674.069	21.66
674.08	-6.54
674.09	15.06
674.101	-0.14
674.112	-26.54
674.123	-8.94
674.134	-1.34
674.145	-0.34
674.156	2.06
674.166	-12.74
674.177	-23.94
674.188	-2.54
674.199	8.06
674.21	-33.94
674.221	-23.54
674.232	-1.54
674.242	-13.74
674.253	-13.14
674.264	32.46
674.275	44.46
674.286	-8.54
674.297	-22.74
674.307	-8.14
674.318	12.46
674.329	13.46
674.34	2.46
674.351	-6.54
674.361	15.26
674.372	38.46
674.383	-26.74
674.394	-27.94
674.405	48.46
674.415	28.86
674.426	-15.94
674.437	-23.94
674.448	-7.14
674.459	0.26
674.469	6.06
674.48	17.06
674.491	3.46
674.502	-8.14
674.512	-27.14
674.523	-43.54
674.534	-47.14
674.545	-40.34
674.556	-31.74
674.566	-24.94
674.577	-1.74
674.588	15.66
674.599	-19.14
674.609	-8.34
674.62	30.26
674.631	15.86
674.642	-31.14
674.652	-17.94
674.663	4.26
674.674	28.06
674.685	18.86
674.695	46.26
674.706	35.66
674.717	8.66
674.727	-25.34
674.738	-27.34
674.749	2.66
674.76	-8.74
674.77	-0.74
674.781	-22.54
674.792	27.46
674.802	23.06
674.813	-16.34
674.824	2.46
674.835	7.46
674.845	-12.34
674.856	-16.94
674.867	-5.54
674.877	-12.94
674.888	-4.54
674.899	-12.54
674.909	-4.14
674.92	30.86
674.931	18.46
674.941	-32.14
674.952	-1.94
674.963	68.26
674.973	45.46
674.984	4.66
674.995	-1.34
675.005	-10.54
675.016	-5.34
675.027	-18.74
675.037	-25.94
675.048	13.06
675.059	38.86
675.069	0.46
675.08	-6.94
675.091	-33.14
675.101	-31.54
675.112	-30.94
675.123	11.06
675.133	29.06
675.144	11.26
675.154	-20.14
675.165	-21.94
675.176	26.46
675.186	40.06
675.197	10.26
675.208	14.66
675.218	13.66
675.229	3.86
675.239	7.86
675.25	18.26
675.261	47.46
675.271	27.66
675.282	6.46
675.292	-1.74
675.303	15.86
675.314	0.86
675.324	-21.14
675.335	-32.74
675.345	-8.74
675.356	-9.34
675.366	-42.34
675.377	-40.34
675.388	-6.54
675.398	-2.74
675.409	-19.94
675.419	-3.94
675.43	37.86
675.44	19.26
675.451	-13.14
675.462	3.86
675.472	23.46
675.483	28.46
675.493	11.46
675.504	-1.74
675.514	-1.14
675.525	3.06
675.535	-30.94
675.546	-18.54
675.556	23.86
675.567	3.26
675.578	-16.74
675.588	-26.14
675.599	12.46
675.609	-8.74
675.62	-34.74
675.63	-20.54
675.641	-23.14
675.651	-16.74
675.662	-3.54
675.672	-25.94
675.683	6.86
675.693	1.46
675.704	-27.54
675.714	18.46
675.725	72.46
675.735	26.66
675.746	11.26
675.756	-27.14
675.767	-17.54
675.777	-5.34
675.788	3.86
675.798	-7.34
675.809	47.66
675.819	64.26
675.829	1.46
675.84	0.66
675.85	24.06
675.861	22.66
675.871	21.66
675.882	1.86
675.892	24.26
675.903	29.06
675.913	-8.54
675.924	2.86
675.934	-1.54
675.944	-0.74
675.955	-4.14
675.965	-15.94
675.976	22.46
675.986	49.66
675.997	-19.34
676.007	5.86
676.018	34.06
676.028	17.86
676.038	-24.74
676.049	-17.94
676.059	-5.94
676.07	7.06
676.08	33.06
676.09	5.26
676.101	-5.74
676.111	-9.54
676.122	-10.94
676.132	-7.14
676.142	23.06
676.153	-3.74
676.163	-33.94
676.174	-27.14
676.184	-36.74
676.194	2.06
676.205	-25.74
676.215	-25.34
676.226	10.46
676.236	38.86
676.246	2.86
676.257	-28.34
676.267	-24.74
676.277	-15.94
676.288	10.86
676.298	-5.14
676.308	10.06
676.319	-23.34
676.329	-11.74
676.34	15.86
676.35	38.46
676.36	0.66
676.371	-26.94
676.381	-31.34
676.391	-14.74
676.402	-0.94
676.412	9.66
676.422	-7.54
676.433	21.46
676.443	48.66
676.453	4.46
676.464	-25.74
676.474	7.46
676.484	18.06
676.494	-9.34
676.505	3.26
676.515	24.26
676.525	37.06
676.536	-9.54
676.546	6.26
676.556	26.26
676.567	-0.14
676.577	-22.54
676.587	4.66
676.597	23.26
676.608	4.26
676.618	-29.14
676.628	-24.94
676.639	-30.74
676.649	-24.94
676.659	-25.74
676.669	-31.74
676.68	-4.94
676.69	37.46
676.7	24.26
676.71	0.66
676.721	75.46
676.731	44.06
676.741	-7.34
676.751	9.46
676.762	39.26
676.772	-10.14
676.782	-56.94
676.792	-20.94
676.803	22.06
676.813	-29.74
676.823	-46.74
676.833	10.46
676.844	49.86
676.854	-21.34
676.864	-14.14
676.874	-6.94
676.885	30.06
676.895	24.46
676.905	-59.14
676.915	-45.14
676.925	-13.34
676.936	14.06
676.946	-19.34
676.956	-35.14
676.966	-26.34
676.976	-22.14
676.987	-25.54
676.997	-18.94
677.007	12.66
677.017	45.06
677.027	-1.14
677.038	4.86
677.048	9.86
677.058	-18.34
677.068	-46.94
677.078	-35.54
677.088	12.46
677.099	-24.34
677.109	-30.34
677.119	-13.54
677.129	28.26
677.139	19.46
677.149	-42.34
677.16	-49.94
677.17	8.66
677.18	-0.14
677.19	-28.54
677.2	-46.34
677.21	-33.74
677.22	-13.34
677.231	-51.54
677.241	-52.54
677.251	-1.14
677.261	8.66
677.271	-24.74
677.281	-33.94
677.291	2.26
677.301	-13.54
677.312	18.46
677.322	139.86
677.332	0.86
677.342	-14.74
677.352	-32.34
677.362	-6.34
677.372	31.66
677.382	34.46
677.392	17.86
677.402	-22.54
677.413	-23.54
677.423	-19.54
677.433	-38.54
677.443	-24.94
677.453	17.06
677.463	-22.14
677.473	-54.54
677.483	-51.14
677.493	0.66
677.503	-7.94
677.513	-28.74
677.523	-16.54
677.533	26.46
677.544	-0.14
677.554	-43.14
677.564	-9.14
677.574	60.86
677.584	16.26
677.594	-50.74
677.604	-46.74
677.614	6.66
677.624	-4.14
677.634	-30.14
677.644	7.26
677.654	40.86
677.664	9.46
677.674	-40.14
677.684	-33.14
677.694	17.86
677.704	-4.34
677.714	-38.34
677.724	-39.34
677.734	0.66
677.744	-23.34
677.754	-49.34
677.764	-29.54
677.774	20.06
677.784	26.06
677.794	-43.54
677.804	-6.14
677.814	10.66
677.824	-42.14
677.834	-59.14
677.844	-26.14
677.854	15.86
677.864	23.26
677.874	-48.34
677.884	-25.14
677.894	29.26
677.904	8.86
677.914	-22.34
677.924	5.26
677.934	75.46
677.944	22.86
677.954	-44.94
677.964	-25.94
677.974	11.46
677.984	-14.94
677.994	-40.14
678.004	-20.54
678.014	-7.34
678.024	-14.74
678.033	-25.94
678.043	-22.14
678.053	-11.34
678.063	-9.94
678.073	-41.94
678.083	-24.14
678.093	49.66
678.103	13.86
678.113	-33.94
678.123	-14.74
678.133	9.06
678.143	-9.54
678.153	-22.34
678.162	-23.54
678.172	-1.94
678.182	-12.54
678.192	-44.74
678.202	-44.54
678.212	-21.74
678.222	6.86
678.232	-17.74
678.242	-17.14
678.252	19.86
678.261	38.86
678.271	-5.54
678.281	-8.54
678.291	31.66
678.301	8.66
678.311	-49.74
678.321	-34.14
678.331	9.26
678.34	-7.94
678.35	-50.74
678.36	-21.94
678.37	15.06
678.38	5.26
678.39	-47.54
678.4	-29.74
678.409	0.46
678.419	-13.34
678.429	-41.14
678.439	-1.54
678.449	8.26
678.459	2.86
678.468	-25.34
678.478	-35.94
678.488	8.46
678.498	29.66
678.508	-17.34
678.518	-13.34
678.527	38.46
678.537	9.46
678.547	-47.14
678.557	-48.34
678.567	-19.94
678.576	-30.14
678.586	-58.54
678.596	-5.94
678.606	12.26
678.616	-42.14
678.625	-43.74
678.635	16.46
678.645	35.86
678.655	-19.14
678.665	-28.54
678.674	-9.14
678.684	17.26
678.694	-3.34
678.704	-40.34
678.713	-10.54
678.723	30.86
678.733	16.66
678.743	-38.74
678.752	-35.74
678.762	-3.94
678.772	12.46
678.782	-29.94
678.791	-14.94
678.801	9.46
678.811	-21.54
678.821	-51.94
678.83	-11.14
678.84	25.26
678.85	-21.54
678.86	-42.34
678.869	-13.54
678.879	32.86
678.889	14.06
678.899	-31.54
678.908	-15.14
678.918	2.46
678.928	-5.74
678.937	-44.74
678.947	-22.14
678.957	2.66
678.967	1.46
678.976	-31.74
678.986	4.86
678.996	-5.94
679.005	-26.74
679.015	-37.34
679.025	-40.14
679.034	-6.14
679.044	20.26
679.054	-18.34
679.063	-26.34
679.073	-2.14
679.083	-2.34
679.093	-39.74
679.102	-9.54
679.112	-0.54
679.122	-14.34
679.131	-28.54
679.141	-31.34
679.151	-7.14
679.16	-17.54
679.17	-58.54
679.179	-6.14
679.189	33.06
679.199	-35.94
679.208	-32.54
679.218	-11.34
679.228	24.06
679.237	10.26
679.247	-21.74
679.257	-18.34
679.266	16.86
679.276	20.86
679.285	-41.74
679.295	-22.54
679.305	-11.54
679.314	-31.74
679.324	-44.94
679.334	-28.14
679.343	52.26
679.353	61.06
679.362	-53.94
679.372	-7.34
679.382	44.26
679.391	-5.94
679.401	11.26
679.41	-24.54
679.42	5.06
679.43	-2.54
679.439	-36.14
679.449	-2.14
679.458	63.66
679.468	8.86
679.477	-49.94
679.487	-21.74
679.497	19.66
679.506	13.46
679.516	-26.54
679.525	-19.54
679.535	36.46
679.544	4.26
679.554	-25.54
679.564	-11.74
679.573	19.26
679.583	-4.74
679.592	-35.14
679.602	-7.94
679.611	49.06
679.621	12.06
679.63	-39.14
679.64	-8.74
679.649	41.26
679.659	13.46
679.669	-31.34
679.678	-2.94
679.688	27.06
679.697	40.26
679.707	17.26
679.716	19.66
679.726	59.06
679.735	26.66
679.745	-34.74
679.754	-28.14
679.764	40.86
679.773	31.46
679.783	-27.74
679.792	-13.94
679.802	26.06
679.811	-2.94
679.821	-33.74
679.83	-3.34
679.84	34.46
679.849	-0.34
679.859	-19.14
679.868	-23.54
679.877	17.26
679.887	-11.94
679.896	-40.34
679.906	-23.94
679.915	21.46
679.925	12.26
679.934	-21.94
679.944	8.46
679.953	42.46
679.963	15.46
679.972	-36.94
679.982	-21.54
679.991	2.06
680	-8.54
680.01	-43.74
680.019	-34.54
680.029	3.66
680.038	46.46
680.048	-34.14
680.057	-21.34
680.066	13.06
680.076	-18.94
680.085	-39.14
680.095	-20.74
680.104	-5.34
680.114	-20.74
680.123	-35.94
680.132	-7.34
680.142	61.26
680.151	21.26
680.161	-36.94
680.17	-9.74
680.179	43.46
680.189	33.46
680.198	-37.14
680.208	-30.34
680.217	-1.74
