Data from h2d2-2_HR4C25001_18-00-31-218.txt Node
Date: Thu Aug 31 18:00:31 CDT 2023
User: kk37594
Spectrometer: HR4C2500
Trigger mode: 4
Integration Time (sec): 2.500000E-1
Scans to average: 5
Electric dark correction enabled: true
Nonlinearity correction enabled: false
Boxcar width: 0
XAxis mode: Wavelengths
Number of Pixels in Spectrum: 3648
>>>>>Begin Spectral Data<<<<<
629.667	-123.2
629.685	-123.2
629.703	-123.2
629.722	-150.2
629.74	-108.4
629.758	-5
629.776	3.2
629.795	35.6
629.813	12.6
629.831	-26.8
629.85	4.2
629.868	19.4
629.886	43.6
629.905	-44.8
629.923	-30
629.941	-8
629.96	5.6
629.978	-9.6
629.996	-11.4
630.014	51.6
630.033	39.2
630.051	22.4
630.069	10.2
630.088	44
630.106	8.2
630.124	-23.6
630.142	-16.8
630.161	-28
630.179	-12.6
630.197	-10.2
630.216	59.4
630.234	214.4
630.252	81.6
630.27	32
630.289	22.2
630.307	21
630.325	7.6
630.343	1.8
630.362	28.4
630.38	69.8
630.398	11.4
630.416	-13.4
630.435	-13
630.453	11.8
630.471	33.4
630.489	6.6
630.507	20.6
630.526	22
630.544	21.2
630.562	11.2
630.58	12
630.599	22.2
630.617	1.4
630.635	-9.6
630.653	13.2
630.671	31.8
630.69	9
630.708	15.8
630.726	20.8
630.744	11
630.762	-19
630.781	-14.8
630.799	6.6
630.817	34.2
630.835	47.2
630.853	6.8
630.871	-3.4
630.89	26.4
630.908	-3
630.926	-34.6
630.944	24
630.962	81.6
630.98	116.6
630.999	16.6
631.017	12.2
631.035	5.4
631.053	-13.2
631.071	8
631.089	3.2
631.108	3.4
631.126	24
631.144	10.6
631.162	22.2
631.18	31.8
631.198	30.2
631.216	3.8
631.234	-19.6
631.253	1
631.271	9.2
631.289	-3.2
631.307	12
631.325	17.4
631.343	34.6
631.361	5.8
631.379	14.6
631.398	13.6
631.416	17.8
631.434	-13.6
631.452	-4.4
631.47	-18.6
631.488	-21
631.506	-27.2
631.524	-21.8
631.542	20
631.56	14
631.578	9.2
631.597	2.2
631.615	-30.8
631.633	-16.2
631.651	-4.2
631.669	-12.2
631.687	45.4
631.705	60
631.723	18.8
631.741	-2.8
631.759	8
631.777	11.2
631.795	13.8
631.813	15
631.831	7.8
631.849	36
631.867	21.2
631.885	13.8
631.903	34.8
631.922	-8
631.94	-17.8
631.958	-5
631.976	11.4
631.994	-7
632.012	-17.2
632.03	13.8
632.048	49.6
632.066	40.6
632.084	6.4
632.102	0.4
632.12	-17.2
632.138	-2
632.156	26
632.174	-7
632.192	-11.6
632.21	-5.2
632.228	-28.8
632.246	-13.4
632.264	12.8
632.282	38.2
632.3	-8.4
632.318	-1.8
632.336	17.4
632.354	14.4
632.372	-1.4
632.39	3.2
632.408	4.6
632.426	-24
632.443	9.2
632.461	2.2
632.479	9
632.497	5
632.515	-3.6
632.533	21.4
632.551	19.4
632.569	8.4
632.587	-12.2
632.605	-16
632.623	10.8
632.641	23
632.659	-32
632.677	-16.4
632.695	-11
632.713	-6.6
632.731	8.2
632.748	19.2
632.766	22.8
632.784	27.6
632.802	9.4
632.82	31.2
632.838	11.2
632.856	-7.8
632.874	4.8
632.892	-11
632.91	-2.2
632.928	8.6
632.945	-4.8
632.963	12.6
632.981	26.2
632.999	11.2
633.017	-10.4
633.035	4.4
633.053	1
633.071	3.6
633.089	-25.6
633.106	9.8
633.124	44.2
633.142	6.6
633.16	21
633.178	17.4
633.196	31.6
633.214	26
633.231	20.6
633.249	-14.2
633.267	-1.8
633.285	17
633.303	-22.4
633.321	-17.6
633.339	23.8
633.356	60.2
633.374	18.6
633.392	5.6
633.41	-5.6
633.428	13.4
633.446	-12.6
633.463	-36.4
633.481	-14.6
633.499	-22.4
633.517	-2.8
633.535	-3.4
633.552	17
633.57	0.4
633.588	-24.2
633.606	-23.4
633.624	12
633.641	12
633.659	-13.8
633.677	-25
633.695	3.2
633.713	23.2
633.73	12.4
633.748	-11.8
633.766	-1.8
633.784	8.2
633.802	-10
633.819	-12.8
633.837	-6.6
633.855	-59.8
633.873	-55
633.89	-28.4
633.908	23.4
633.926	6.8
633.944	-19.2
633.961	-0
633.979	23.2
633.997	-50.2
634.015	-9.4
634.032	29.2
634.05	40.2
634.068	-18.8
634.086	13.8
634.103	22.2
634.121	6.8
634.139	28.8
634.157	3.2
634.174	-10.8
634.192	-11.8
634.21	-4.4
634.227	16.4
634.245	20.4
634.263	36.6
634.281	53.8
634.298	12.2
634.316	1.6
634.334	2
634.351	-25.4
634.369	-40.8
634.387	2.6
634.404	17.6
634.422	-5.8
634.44	-11.8
634.458	-18.2
634.475	33.4
634.493	54.6
634.511	-22
634.528	-7.4
634.546	1.8
634.564	-2
634.581	-41.4
634.599	0.4
634.617	23.2
634.634	7
634.652	-24.6
634.67	-12.2
634.687	34.4
634.705	8.6
634.723	-10.4
634.74	20.4
634.758	5.4
634.775	-2.6
634.793	-20.4
634.811	30
634.828	27.4
634.846	-8.2
634.864	-15.4
634.881	32.6
634.899	0.2
634.917	-10.8
634.934	-12.4
634.952	15.8
634.969	20.2
634.987	31
635.005	-3.8
635.022	18.2
635.04	26.6
635.057	7.2
635.075	-11.8
635.093	11.2
635.11	32.2
635.128	27.6
635.145	-9.8
635.163	28.6
635.181	15
635.198	23.8
635.216	11.4
635.233	4.6
635.251	34.6
635.268	-2.4
635.286	-1.4
635.304	-11
635.321	-13.4
635.339	-34.8
635.356	-33.8
635.374	-14.6
635.391	-11.8
635.409	-14
635.426	5.2
635.444	1
635.462	-2
635.479	-6.4
635.497	-3.8
635.514	17.6
635.532	14.6
635.549	8.2
635.567	-16.4
635.584	3
635.602	63.2
635.619	54.4
635.637	-17.4
635.654	10
635.672	3.2
635.689	19.6
635.707	-13.4
635.724	-6.6
635.742	-14.6
635.759	-21.8
635.777	-18.2
635.795	-3.8
635.812	45.4
635.829	0.8
635.847	-31.6
635.864	-2.4
635.882	19.2
635.899	25.8
635.917	-6.8
635.934	-11
635.952	-0.4
635.969	-6.2
635.987	22.8
636.004	74
636.022	31.4
636.039	-15.8
636.057	10
636.074	7.8
636.092	5.6
636.109	-10
636.127	4
636.144	4.4
636.161	56.4
636.179	7.4
636.196	-17
636.214	-15.4
636.231	8.4
636.249	-14
636.266	-13.8
636.283	11.4
636.301	20.2
636.318	15.2
636.336	-8.8
636.353	-2.8
636.371	11
636.388	-2.4
636.405	12.2
636.423	20
636.44	21
636.458	-13.8
636.475	-37.6
636.492	-27.6
636.51	-17.4
636.527	-6
636.545	-3.4
636.562	-9.4
636.579	-13.4
636.597	-24
636.614	-13.6
636.632	-8.2
636.649	48.4
636.666	39
636.684	-10.8
636.701	-27.4
636.718	-22.2
636.736	-18
636.753	-6.2
636.771	9.2
636.788	31.8
636.805	6.4
636.823	-20.6
636.84	-16.2
636.857	-17.2
636.875	-31
636.892	-17.4
636.909	28.4
636.927	34.8
636.944	-5.2
636.961	-30.4
636.979	-17.2
636.996	13.6
637.013	6.4
637.031	-10.6
637.048	-32
637.065	-0.8
637.083	1
637.1	-18.8
637.117	-26.8
637.135	18.6
637.152	34.6
637.169	-0
637.187	-9.4
637.204	36.6
637.221	10
637.238	-15.2
637.256	26.4
637.273	7
637.29	26.4
637.308	-15.4
637.325	-5
637.342	21.4
637.359	45
637.377	23.2
637.394	50.8
637.411	5.4
637.428	15.4
637.446	-16.4
637.463	0.2
637.48	67.8
637.498	26.8
637.515	-11.4
637.532	12.6
637.549	0.8
637.567	-9.8
637.584	-11
637.601	1.8
637.618	28.8
637.636	14.2
637.653	-10.6
637.67	-8.6
637.687	21.6
637.704	8.8
637.722	-4.8
637.739	5.4
637.756	42.4
637.773	29.8
637.791	-7.8
637.808	9
637.825	8
637.842	19.6
637.859	-11.2
637.877	2.6
637.894	15.4
637.911	-6.2
637.928	-20.8
637.945	13.4
637.963	41.4
637.98	23
637.997	3.2
638.014	-27.6
638.031	0.2
638.049	14
638.066	-30.8
638.083	-7
638.1	5.8
638.117	-6.2
638.134	-23
638.152	-9.6
638.169	-22.6
638.186	-7.6
638.203	-31.2
638.22	-44.2
638.237	-40.4
638.255	-28
638.272	-21.4
638.289	-18.6
638.306	-23.4
638.323	5.6
638.34	14.8
638.357	14.6
638.374	53
638.392	-9.8
638.409	-25.2
638.426	-5
638.443	3.4
638.46	-13.6
638.477	-4
638.494	18.6
638.511	23.6
638.529	17.6
638.546	-27.6
638.563	-14.4
638.58	16.4
638.597	17.8
638.614	-7.2
638.631	-7.4
638.648	5
638.665	2.2
638.682	-8.6
638.7	4.4
638.717	26.8
638.734	-1.6
638.751	-11.8
638.768	-6.6
638.785	4.8
638.802	-18.4
638.819	-8.2
638.836	6
638.853	38.2
638.87	-10.4
638.887	-37.8
638.904	-2.6
638.921	34.4
638.939	28
638.956	11.6
638.973	-6.6
638.99	28.6
639.007	37
639.024	1.4
639.041	16.6
639.058	27.2
639.075	13.4
639.092	17.6
639.109	-35.8
639.126	-28.6
639.143	-11.2
639.16	-26.8
639.177	16.8
639.194	58.4
639.211	61.2
639.228	28.6
639.245	-1.6
639.262	0.4
639.279	-9.2
639.296	-2
639.313	8.4
639.33	-8.6
639.347	10
639.364	-1.2
639.381	3.8
639.398	25
639.415	24.8
639.432	3.4
639.449	-13
639.466	20.4
639.483	24
639.5	8
639.517	-4.4
639.534	-25.2
639.551	-29.6
639.568	-50
639.585	-24.6
639.602	6.4
639.619	1.8
639.636	5.2
639.653	18.8
639.669	-18.2
639.686	-9.8
639.703	5
639.72	7.2
639.737	12
639.754	22.6
639.771	20
639.788	49
639.805	72.8
639.822	11.8
639.839	-7.8
639.856	3.2
639.873	13.4
639.89	26.2
639.906	-25.8
639.923	-12.8
639.94	15.8
639.957	20.4
639.974	-8
639.991	9.2
640.008	21.2
640.025	13.2
640.042	-11.8
640.059	-2
640.075	6.4
640.092	26.8
640.109	11.4
640.126	16.2
640.143	-9.8
640.16	-2.6
640.177	-7.8
640.194	-22.6
640.21	-13.2
640.227	12.6
640.244	10.2
640.261	23.2
640.278	46
640.295	12.2
640.312	-29
640.328	-16.2
640.345	21
640.362	4
640.379	-6
640.396	29.8
640.413	67.8
640.43	5.2
640.446	-44.8
640.463	-11.2
640.48	-4.2
640.497	-20.8
640.514	-30.2
640.531	-8
640.547	12.6
640.564	12.8
640.581	22.8
640.598	30
640.615	1.4
640.631	-4.2
640.648	-24.2
640.665	-9
640.682	28.6
640.699	-26
640.715	-18.4
640.732	-10.8
640.749	-6.8
640.766	25.4
640.783	13.6
640.799	10.6
640.816	25.4
640.833	16.6
640.85	1.6
640.866	16.2
640.883	66.8
640.9	16.8
640.917	-5.4
640.933	-27
640.95	-13.8
640.967	3
640.984	-16.6
641.001	-26.4
641.017	-20.2
641.034	-21.6
641.051	-11.4
641.068	-14.8
641.084	23.8
641.101	2.2
641.118	12.8
641.134	-7.4
641.151	1.4
641.168	-3.2
641.185	-27
641.201	29.6
641.218	39
641.235	1.4
641.252	-6.8
641.268	15.8
641.285	2.6
641.302	6
641.318	-29.6
641.335	-16.2
641.352	-1.8
641.368	16.8
641.385	17
641.402	17.2
641.419	17
641.435	8.6
641.452	45.4
641.469	18.2
641.485	3.6
641.502	-1
641.519	-20.8
641.535	1
641.552	69.4
641.569	52
641.585	-4
641.602	-2.4
641.619	21
641.635	-22
641.652	-26.2
641.669	0.2
641.685	30
641.702	29
641.719	22.2
641.735	27.2
641.752	13
641.769	2.4
641.785	-10.8
641.802	-17.6
641.818	24.2
641.835	51.4
641.852	17.2
641.868	12.2
641.885	22.2
641.902	-9.4
641.918	-15.2
641.935	12.8
641.951	13.8
641.968	-10
641.985	-30.6
642.001	8.4
642.018	27.2
642.034	14.8
642.051	-7.6
642.068	-26.8
642.084	4.2
642.101	2.8
642.117	-3.2
642.134	-0.6
642.151	9.6
642.167	-5.6
642.184	-22.2
642.2	18.8
642.217	51.8
642.233	43
642.25	-3.8
642.267	17.4
642.283	30.8
642.3	-2.8
642.316	-29.4
642.333	-4.2
642.349	-3.6
642.366	-32.2
642.382	-54.6
642.399	175
642.416	455.8
642.432	52.4
642.449	-41.6
642.465	-6.8
642.482	17.8
642.498	-4.8
642.515	-8.8
642.531	-22.2
642.548	2.6
642.564	16.8
642.581	2.4
642.597	-4.8
642.614	28.4
642.63	38.2
642.647	0.2
642.663	14.6
642.68	4.6
642.696	21
642.713	-16
642.729	0.4
642.746	37.2
642.762	3.8
642.779	-9.6
642.795	-22
642.812	-23
642.828	-35.4
642.845	-26.6
642.861	-14.6
642.878	-18.6
642.894	-2.4
642.911	34.2
642.927	-10.6
642.944	5.2
642.96	45.4
642.977	-0.8
642.993	4.8
643.01	12.8
643.026	-6.6
643.042	-17.8
643.059	1.2
643.075	-15.4
643.092	-32.2
643.108	-39
643.125	-25
643.141	-7.8
643.158	-6.6
643.174	0.4
643.19	57.8
643.207	58.6
643.223	2.6
643.24	5
643.256	-5
643.272	-12
643.289	-7.6
643.305	0.2
643.322	16.8
643.338	13
643.355	14
643.371	22.6
643.387	1.2
643.404	-10
643.42	-10.2
643.437	6.2
643.453	33
643.469	18
643.486	0.6
643.502	12.4
643.518	4.4
643.535	-14.6
643.551	18
643.568	-3.8
643.584	-2.6
643.6	-13.6
643.617	7.4
643.633	-9.6
643.649	11
643.666	8.6
643.682	-7
643.698	1.4
643.715	-15.4
643.731	-3.2
643.748	-13.8
643.764	-9.8
643.78	-4.6
643.797	28
643.813	20
643.829	17.8
643.846	-2.6
643.862	41.6
643.878	42.6
643.895	11
643.911	8.4
643.927	19.4
643.943	31.6
643.96	-28.8
643.976	-31
643.992	15.4
644.009	33.8
644.025	5.2
644.041	2.6
644.058	27.8
644.074	32.2
644.09	2
644.106	4.6
644.123	15.2
644.139	5.8
644.155	-9
644.172	-14.6
644.188	39.8
644.204	17.6
644.22	10.6
644.237	17
644.253	13.2
644.269	20.4
644.286	5.2
644.302	-6
644.318	2.8
644.334	15.6
644.351	19.8
644.367	6.4
644.383	10.4
644.399	12.8
644.416	16.8
644.432	-10
644.448	-23.2
644.464	-19
644.481	-3.8
644.497	-1
644.513	23
644.529	0.4
644.545	9.4
644.562	4.2
644.578	22.2
644.594	13.8
644.61	5.8
644.627	3.8
644.643	19.8
644.659	-5.6
644.675	-35.2
644.691	-16.8
644.708	3.2
644.724	18.2
644.74	-2.2
644.756	12
644.772	31.2
644.789	53.8
644.805	27.8
644.821	1.6
644.837	32.2
644.853	42
644.869	16.8
644.886	30.2
644.902	61.2
644.918	63.4
644.934	32.2
644.95	53.6
644.966	21.2
644.983	15.4
644.999	4.8
645.015	1.2
645.031	39.4
645.047	44.8
645.063	32.6
645.079	116.6
645.096	241.8
645.112	45.8
645.128	38.4
645.144	24.4
645.16	43.6
645.176	22.8
645.192	14
645.209	32.8
645.225	25.4
645.241	43.2
645.257	41.8
645.273	32
645.289	35.2
645.305	6.8
645.321	18.4
645.337	30.2
645.354	46.6
645.37	6
645.386	8
645.402	19.8
645.418	17.8
645.434	-1.4
645.45	8.6
645.466	18.8
645.482	17.4
645.498	28
645.514	-16.2
645.531	-5
645.547	17.8
645.563	26.6
645.579	1.2
645.595	22.2
645.611	16.2
645.627	38.2
645.643	39.2
645.659	38.2
645.675	39
645.691	12.6
645.707	-1.8
645.723	-4.8
645.739	25.6
645.755	22.8
645.771	-11.2
645.787	6.2
645.803	49.4
645.819	71.4
645.835	-0.6
645.852	43.6
645.868	37.8
645.884	2.6
645.9	-2.6
645.916	6.4
645.932	-4.6
645.948	2.8
645.964	-1.6
645.98	10.6
645.996	36.6
646.012	44
646.028	12.8
646.044	2.2
646.06	1.2
646.076	-6.8
646.092	15
646.108	-3
646.124	29.8
646.14	31.6
646.156	3
646.172	27.8
646.188	36.6
646.203	6.2
646.219	-22.8
646.235	38
646.251	67
646.267	13.4
646.283	17.4
646.299	5
646.315	56
646.331	67.4
646.347	28.2
646.363	-1.4
646.379	-3.2
646.395	-27
646.411	-11.8
646.427	-11.6
646.443	-17.2
646.459	-11.8
646.475	17.2
646.491	14.2
646.506	8.4
646.522	-25.8
646.538	-23
646.554	-16.6
646.57	-0.2
646.586	1.6
646.602	8.4
646.618	3.4
646.634	21.2
646.65	28.6
646.666	-4
646.682	-15.8
646.697	22
646.713	22.2
646.729	-4.6
646.745	-0.8
646.761	45.2
646.777	28.6
646.793	-0.6
646.809	1.6
646.824	-18.8
646.84	2.4
646.856	-4.2
646.872	-1.6
646.888	29.4
646.904	-7.4
646.92	-0.2
646.936	1
646.951	-6.4
646.967	1.2
646.983	32.2
646.999	24.4
647.015	14.6
647.031	49
647.047	-0.6
647.062	-16.6
647.078	-10.8
647.094	-8
647.11	-13.4
647.126	-22.2
647.142	17.2
647.157	59
647.173	3.2
647.189	-12.4
647.205	-28.4
647.221	-35
647.236	-8.6
647.252	1.8
647.268	-10.8
647.284	-10
647.3	21.2
647.315	7.6
647.331	4.8
647.347	23.8
647.363	0.4
647.379	13.2
647.394	21.4
647.41	15.8
647.426	4.6
647.442	-3.4
647.458	5.6
647.473	16
647.489	8
647.505	24.2
647.521	26.6
647.536	10.6
647.552	-22.4
647.568	-24.6
647.584	15.6
647.599	10
647.615	-6.6
647.631	7.4
647.647	10
647.662	1
647.678	-20.6
647.694	-29
647.71	-9.6
647.725	-41.2
647.741	-41.6
647.757	-19
647.773	14.8
647.788	16.8
647.804	-3.8
647.82	7.6
647.835	27.6
647.851	15.8
647.867	-11
647.883	-3
647.898	21.4
647.914	28.6
647.93	23.6
647.945	1.8
647.961	23.8
647.977	33.2
647.993	-8
648.008	12
648.024	38.4
648.04	-9.6
648.055	-8.2
648.071	-9.8
648.087	6.8
648.102	-18.6
648.118	-28.4
648.134	-27
648.149	7.6
648.165	17.6
648.181	-4.8
648.196	-19.8
648.212	-4.2
648.228	-6.6
648.243	0.8
648.259	2.6
648.275	0.6
648.29	6.6
648.306	1.6
648.322	-0.4
648.337	0.2
648.353	42.2
648.368	45.4
648.384	78.8
648.4	21
648.415	-10.2
648.431	-0.8
648.447	16
648.462	48.8
648.478	29.2
648.493	-26.6
648.509	3.6
648.525	24.6
648.54	-26.2
648.556	-15.6
648.572	18.6
648.587	12.4
648.603	3.6
648.618	7.8
648.634	4.8
648.65	26.2
648.665	30
648.681	-9
648.696	22.8
648.712	69.8
648.727	64.8
648.743	44
648.759	48.4
648.774	59
648.79	2.6
648.805	-30.2
648.821	-3.6
648.836	21.2
648.852	-8
648.868	-8.4
648.883	0.8
648.899	3
648.914	-6.6
648.93	5
648.945	27.8
648.961	56.4
648.976	29.2
648.992	5.8
649.007	8.8
649.023	6.4
649.039	12.6
649.054	-24.2
649.07	8.6
649.085	-5.4
649.101	13.4
649.116	-21.8
649.132	7.8
649.147	14.2
649.163	0.2
649.178	-6.8
649.194	7
649.209	65.2
649.225	51.2
649.24	32.6
649.256	52.2
649.271	39.6
649.287	8
649.302	-10.6
649.318	4.2
649.333	-16.4
649.349	-1.4
649.364	10.8
649.38	34.8
649.395	39.2
649.41	30.4
649.426	10
649.441	-13.6
649.457	15
649.472	-8.4
649.488	-2.4
649.503	29
649.519	45.4
649.534	39.4
649.55	31.4
649.565	40.6
649.581	33.6
649.596	8.4
649.611	-2.8
649.627	18.8
649.642	9
649.658	-10.6
649.673	20.6
649.689	30.2
649.704	38.4
649.719	46.2
649.735	11.2
649.75	39
649.766	23.2
649.781	18.2
649.796	-17.2
649.812	6.6
649.827	35.8
649.843	-3
649.858	8.8
649.874	-5.2
649.889	14.2
649.904	16
649.92	-4.8
649.935	-11.4
649.95	30.4
649.966	-4.4
649.981	-6
649.997	10.2
650.012	0.8
650.027	-3.6
650.043	-18.8
650.058	-11.2
650.073	-0.2
650.089	34
650.104	34.6
650.12	-11.6
650.135	0.4
650.15	-1
650.166	13.2
650.181	7.6
650.196	29.4
650.212	26.4
650.227	-1.4
650.242	22.4
650.258	24.8
650.273	15.8
650.288	-3.2
650.304	15.8
650.319	5.6
650.334	-6.6
650.35	1.2
650.365	68.4
650.38	44.2
650.396	2.4
650.411	2.8
650.426	-0.2
650.441	13.4
650.457	19
650.472	17.8
650.487	27.4
650.503	-6
650.518	-17
650.533	-7.6
650.549	22.6
650.564	35.6
650.579	16.6
650.594	9
650.61	12.8
650.625	25.4
650.64	18.8
650.656	-18
650.671	-16.2
650.686	5.4
650.701	28.8
650.717	20.4
650.732	39.8
650.747	26.8
650.762	12.6
650.778	17.8
650.793	18
650.808	27.6
650.823	14.4
650.839	4.4
650.854	9.6
650.869	35.4
650.884	61
650.9	5.6
650.915	4.6
650.93	-9.6
650.945	-0.8
650.96	14.6
650.976	7.8
650.991	-2.4
651.006	-5.6
651.021	-8.2
651.037	10.2
651.052	21.2
651.067	-39.4
651.082	-25.8
651.097	-21.2
651.113	-6.2
651.128	-10
651.143	17.8
651.158	-15
651.173	5.2
651.189	41.6
651.204	-19.2
651.219	-22.4
651.234	35.4
651.249	34.4
651.264	12
651.28	-0.6
651.295	6.4
651.31	48.6
651.325	-41
651.34	-22.6
651.355	-11.2
651.371	-25.8
651.386	-55.6
651.401	-11.4
651.416	16.4
651.431	0.8
651.446	-19.8
651.461	-29.2
651.477	12.6
651.492	44.4
651.507	5.4
651.522	4
651.537	1.6
651.552	-19.4
651.567	-9.8
651.583	17.8
651.598	32.2
651.613	-33.8
651.628	-5.2
651.643	-0.6
651.658	2.8
651.673	0.6
651.688	-7.6
651.703	19.2
651.719	56.6
651.734	64
651.749	-17.6
651.764	-0.6
651.779	11.2
651.794	6.2
651.809	-17.2
651.824	17.6
651.839	5
651.854	18.4
651.869	9.4
651.884	23.6
651.9	6.6
651.915	-12.6
651.93	-4.6
651.945	29.2
651.96	22.4
651.975	7.8
651.99	9.2
652.005	-16.8
652.02	10.6
652.035	43
652.05	70.6
652.065	183.8
652.08	28.8
652.095	-1.8
652.11	43
652.125	16.8
652.14	21.8
652.155	22.2
652.17	19.4
652.185	1.2
652.2	30.8
652.215	31
652.23	-7.4
652.245	2
652.261	38
652.276	37.2
652.291	22
652.306	6.2
652.321	31.6
652.336	18.8
652.351	-9.8
652.366	2.6
652.381	32
652.396	26.4
652.41	12.2
652.425	42.6
652.44	49.8
652.455	-3.6
652.47	6.4
652.485	-3
652.5	-16
652.515	-24.6
652.53	-12.4
652.545	-10.4
652.56	2
652.575	-10
652.59	29.6
652.605	72.8
652.62	22.6
652.635	-11.4
652.65	-22.2
652.665	-14
652.68	23.6
652.695	31.2
652.71	-12.8
652.725	-12.4
652.74	17.8
652.755	23.2
652.769	33.8
652.784	3.6
652.799	20.4
652.814	21
652.829	5.6
652.844	0.2
652.859	-24
652.874	-3.2
652.889	22.2
652.904	12.8
652.919	-10.8
652.934	3.8
652.948	14.6
652.963	17.2
652.978	3.6
652.993	-4.4
653.008	2.8
653.023	-4.8
653.038	3.6
653.053	9.2
653.068	-6.6
653.082	-15.6
653.097	15.8
653.112	21.4
653.127	-0.2
653.142	35.6
653.157	66.2
653.172	5.6
653.186	29.4
653.201	23.6
653.216	42.6
653.231	50
653.246	-4.6
653.261	-20.8
653.276	45.6
653.29	53.8
653.305	1.6
653.32	-2.2
653.335	-12.2
653.35	-16
653.365	7.4
653.379	-3
653.394	-4.2
653.409	-2.2
653.424	-4.4
653.439	1.8
653.454	0.6
653.468	-23.6
653.483	-23.6
653.498	9.4
653.513	47.2
653.528	40
653.542	10.2
653.557	-20
653.572	4.4
653.587	28.4
653.602	5.2
653.616	-8.4
653.631	-22.2
653.646	-16.4
653.661	11.6
653.675	6.4
653.69	-7.2
653.705	-10
653.72	-7.8
653.735	-14
653.749	-1.8
653.764	20.6
653.779	18.6
653.794	19.8
653.808	17.2
653.823	11.2
653.838	15.2
653.853	48.6
653.867	-9
653.882	-12.4
653.897	21.4
653.912	46.2
653.926	66
653.941	37
653.956	16
653.971	-21
653.985	-6.2
654	13.4
654.015	1.2
654.029	23
654.044	52.8
654.059	24.6
654.074	39.2
654.088	152.6
654.103	354.6
654.118	75
654.132	51
654.147	29
654.162	5.6
654.177	19.8
654.191	-6.8
654.206	-16
654.221	33.4
654.235	29
654.25	93.6
654.265	194.2
654.279	104.2
654.294	65.6
654.309	47.2
654.323	61.2
654.338	51
654.353	40.6
654.367	31.8
654.382	30.2
654.397	7.2
654.411	22
654.426	25
654.441	48
654.455	27.2
654.47	14.6
654.485	27
654.499	37.2
654.514	45.6
654.528	41.6
654.543	34
654.558	60.6
654.572	56.4
654.587	53.8
654.602	33.8
654.616	26.8
654.631	32.2
654.645	60
654.66	35
654.675	29.2
654.689	54.4
654.704	60.2
654.719	49.8
654.733	42.4
654.748	74.4
654.762	50.4
654.777	63.8
654.792	40.2
654.806	35.8
654.821	83.8
654.835	57.8
654.85	62.2
654.864	60
654.879	38.6
654.894	36.2
654.908	43.8
654.923	47.6
654.937	41.2
654.952	50.8
654.966	58
654.981	76.4
654.996	58.4
655.01	82
655.025	45
655.039	59
655.054	58.6
655.068	59.8
655.083	81.6
655.097	68
655.112	52.2
655.126	49.8
655.141	69
655.156	105.2
655.17	75.8
655.185	70
655.199	103.4
655.214	157.2
655.228	190.8
655.243	174.4
655.257	186.6
655.272	188.2
655.286	134.6
655.301	136.6
655.315	146.2
655.33	169.2
655.344	177.8
655.359	166.6
655.373	192
655.388	231.2
655.402	324
655.417	389
655.431	417.2
655.446	464.8
655.46	434
655.475	519
655.489	713.8
655.504	1266
655.518	3488.2
655.532	10090.2
655.547	15568.4
655.561	15568.4
655.576	15568.4
655.59	15568.4
655.605	15568.4
655.619	15568.4
655.634	15568.4
655.648	15568.4
655.663	15568.4
655.677	15568.4
655.691	15568.4
655.706	15568.4
655.72	15568.4
655.735	15568.4
655.749	15568.4
655.764	15568.4
655.778	15568.4
655.792	15568.4
655.807	15568.4
655.821	15568.4
655.836	15568.4
655.85	15568.4
655.865	15568.4
655.879	15568.4
655.893	15568.4
655.908	15568.4
655.922	15568.4
655.937	15568.4
655.951	15568.4
655.965	15568.4
655.98	14534
655.994	6826.8
656.009	802
656.023	317.2
656.037	239
656.052	183.8
656.066	140.4
656.08	147.8
656.095	144.2
656.109	112
656.124	115.8
656.138	137.2
656.152	111
656.167	119.4
656.181	105.8
656.195	130.4
656.21	99.6
656.224	63.6
656.238	85
656.253	106.8
656.267	111.6
656.281	47
656.296	53.2
656.31	85.2
656.324	96.8
656.339	73.4
656.353	57.4
656.367	70.6
656.382	30
656.396	2.2
656.41	18.2
656.425	39.4
656.439	29.6
656.453	12.8
656.468	24.2
656.482	40.6
656.496	28.4
656.51	27.4
656.525	39.2
656.539	34.2
656.553	21.2
656.568	25.2
656.582	31.2
656.596	45
656.611	15.8
656.625	20.6
656.639	36.4
656.653	49.4
656.668	29
656.682	11
656.696	14.6
656.71	25.4
656.725	58
656.739	46.2
656.753	56.6
656.767	19.8
656.782	23
656.796	55
656.81	108.6
656.824	13.4
656.839	21.2
656.853	11.6
656.867	21.2
656.881	43.6
656.896	17.4
656.91	0.4
656.924	17.4
656.938	42.6
656.953	38
656.967	31.8
656.981	55.4
656.995	27.6
657.009	23.6
657.024	-23.4
657.038	-13.6
657.052	18.8
657.066	68.2
657.08	10.8
657.095	9.8
657.109	-6.2
657.123	15.2
657.137	-0.6
657.151	10.4
657.166	9
657.18	-4.4
657.194	-45
657.208	-8
657.222	5.6
657.237	12
657.251	1.6
657.265	17.4
657.279	10
657.293	-16.8
657.307	8.2
657.322	2.2
657.336	47
657.35	91
657.364	28.6
657.378	38.6
657.392	13.8
657.406	40.4
657.421	24.6
657.435	6
657.449	24.8
657.463	13.8
657.477	28.8
657.491	38.2
657.505	-5.4
657.52	-0.8
657.534	-1.8
657.548	3.2
657.562	65.6
657.576	80
657.59	14.8
657.604	18.8
657.618	29.4
657.632	23.4
657.647	7.4
657.661	3.4
657.675	49.2
657.689	40.6
657.703	4
657.717	5.2
657.731	19.2
657.745	40.2
657.759	1.4
657.773	-6.8
657.787	3.4
657.802	-2.6
657.816	10.8
657.83	7.8
657.844	1.8
657.858	26.2
657.872	-4.4
657.886	2.4
657.9	10.2
657.914	34.8
657.928	33.4
657.942	26
657.956	37.8
657.97	17.8
657.984	32.4
657.998	103.2
658.012	35.4
658.026	-24.4
658.04	-5.6
658.054	2.4
658.069	-22.4
658.083	-14
658.097	-0.6
658.111	24.2
658.125	60.8
658.139	76.8
658.153	17.8
658.167	47
658.181	39.8
658.195	11.2
658.209	-15.2
658.223	-11.2
658.237	27.2
658.251	25.2
658.265	3.6
658.279	10.6
658.293	11.6
658.307	4.4
658.321	-1.2
658.335	4
658.349	17.8
658.363	19.6
658.377	-10
658.391	28
658.405	51.4
658.418	30.4
658.432	3.2
658.446	-22.8
658.46	-10.4
658.474	16.2
658.488	5
658.502	35.2
658.516	29.2
658.53	-6.6
658.544	-12.6
658.558	10.4
658.572	7.6
658.586	33.4
658.6	13.4
658.614	-23.8
658.628	3.4
658.642	32.6
658.656	15.4
658.67	-9.4
658.683	153.4
658.697	361.6
658.711	21.2
658.725	12
658.739	24.6
658.753	29
658.767	2.2
658.781	14.4
658.795	2.6
658.809	-17.4
658.823	-7.2
658.836	12
658.85	45.6
658.864	22
658.878	15.2
658.892	-1.6
658.906	11.2
658.92	6
658.934	-8.8
658.947	-0.2
658.961	-8.6
658.975	23.6
658.989	-26.2
659.003	-24.2
659.017	-18.6
659.031	-6.4
659.045	10.8
659.058	15
659.072	14.6
659.086	7.2
659.1	16.6
659.114	14.4
659.128	-1.4
659.141	10.6
659.155	11.8
659.169	14.8
659.183	26.4
659.197	1.4
659.211	6.2
659.224	22
659.238	106.8
659.252	56.8
659.266	16.8
659.28	31.6
659.294	15.4
659.307	-4.8
659.321	0.6
659.335	-16.8
659.349	-26
659.363	-2.2
659.376	28
659.39	12.4
659.404	-18.8
659.418	1.2
659.432	9.2
659.445	11.2
659.459	49.4
659.473	-9.2
659.487	6
659.5	-2.6
659.514	1
659.528	29.6
659.542	40.8
659.556	-4.2
659.569	19.2
659.583	10.8
659.597	13.2
659.611	16.2
659.624	119.8
659.638	220.2
659.652	7.4
659.666	-16.8
659.679	6.4
659.693	4.6
659.707	10.6
659.721	11.8
659.734	31.8
659.748	-4.6
659.762	-10.2
659.776	2.4
659.789	48
659.803	-25.8
659.817	-25.2
659.83	9.2
659.844	17.8
659.858	-7.6
659.872	-18.2
659.885	-10.6
659.899	0.6
659.913	22
659.926	42
659.94	19.4
659.954	28
659.967	26.6
659.981	1
659.995	-8
660.009	20.6
660.022	31
660.036	19
660.05	-23
660.063	7.4
660.077	46
660.091	20
660.104	-28.4
660.118	11.4
660.132	40.8
660.145	9.6
660.159	2.8
660.173	8
660.186	18.4
660.2	-18
660.214	-22.8
660.227	14.8
660.241	-0.2
660.254	-26.2
660.268	-10.6
660.282	31.6
660.295	33.6
660.309	4.6
660.323	-20.6
660.336	-34
660.35	-34.2
660.364	6.8
660.377	6.8
660.391	73.2
660.404	40.6
660.418	10.4
660.432	-11.2
660.445	20.8
660.459	29.4
660.472	-11
660.486	-10.2
660.5	3
660.513	10.2
660.527	-15.2
660.54	18.2
660.554	45.6
660.568	18.2
660.581	9.8
660.595	6.8
660.608	-8.2
660.622	1.4
660.635	11.2
660.649	17.6
660.663	32
660.676	20.6
660.69	17.4
660.703	20.4
660.717	-2
660.73	-21.6
660.744	-10.4
660.757	-6.2
660.771	15.6
660.785	5.4
660.798	15.4
660.812	24.8
660.825	11.2
660.839	-6.2
660.852	11.6
660.866	25
660.879	30.8
660.893	-0.4
660.906	19.8
660.92	9.6
660.933	17.8
660.947	39.8
660.96	-16.6
660.974	6
660.987	52.8
661.001	-1.6
661.015	-20.8
661.028	-9.6
661.042	15.2
661.055	38.8
661.069	-9.4
661.082	-18.2
661.095	105.4
661.109	206.8
661.122	-3
661.136	-11.2
661.149	-21.2
661.163	-5.6
661.176	33.4
661.19	22.6
661.203	79.6
661.217	65.4
661.23	9.6
661.244	1.2
661.257	22.2
661.271	-13.8
661.284	-1.6
661.298	-30
661.311	-9.6
661.324	11
661.338	-23.4
661.351	-27.4
661.365	4.2
661.378	-0.4
661.392	-22.6
661.405	139.4
661.419	371.2
661.432	41.8
661.445	-2.2
661.459	1.6
661.472	34.6
661.486	29
661.499	10.6
661.512	-0.8
661.526	51
661.539	29.2
661.553	1.4
661.566	-1.6
661.579	28
661.593	-7.4
661.606	-31.4
661.62	2
661.633	23
661.646	15.2
661.66	-14.6
661.673	-11
661.687	22.2
661.7	50.4
661.713	0.8
661.727	45.8
661.74	140.2
661.753	10.6
661.767	-7.2
661.78	24.2
661.794	60.2
661.807	-11
661.82	2.2
661.834	7.4
661.847	-3.4
661.86	20.6
661.874	-5.6
661.887	-4.8
661.9	19.2
661.914	9.8
661.927	-22.6
661.94	-12.6
661.954	17.4
661.967	53.6
661.98	25.6
661.994	-11.8
662.007	7.4
662.02	31.6
662.034	-10
662.047	-1.6
662.06	-0
662.074	-23
662.087	-25.4
662.1	-5.4
662.114	21.6
662.127	25.2
662.14	-38.8
662.153	-4.2
662.167	34.8
662.18	-10.4
662.193	-16.4
662.207	-16.4
662.22	3.8
662.233	4.8
662.246	-27
662.26	5.8
662.273	17
662.286	-12
662.3	-3.2
662.313	-21.8
662.326	-18.4
662.339	-6.6
662.353	-11.4
662.366	-17.6
662.379	-7
662.392	-3.4
662.406	2.8
662.419	7.8
662.432	36.4
662.445	7.2
662.459	-33.4
662.472	-21.8
662.485	6.2
662.498	-8.8
662.512	6
662.525	6.6
662.538	-11.4
662.551	10.6
662.564	-8.6
662.578	-0
662.591	35.2
662.604	44
662.617	-5.8
662.63	6.8
662.644	12.4
662.657	-3.8
662.67	4.8
662.683	6.4
662.696	-2.2
662.71	8.6
662.723	6.2
662.736	12.2
662.749	39.2
662.762	19.4
662.776	-3.6
662.789	13.8
662.802	41
662.815	51.2
662.828	1.4
662.841	-21.4
662.855	3
662.868	10.8
662.881	-26.6
662.894	-26.4
662.907	6.8
662.92	65.6
662.934	-12.2
662.947	-15.4
662.96	11.4
662.973	7.4
662.986	-34
662.999	-29
663.012	26.2
663.026	17
663.039	5.2
663.052	-1.6
663.065	25
663.078	26.6
663.091	17.4
663.104	-9
663.117	-8.6
663.131	1.4
663.144	-6.6
663.157	-28
663.17	10.6
663.183	29.2
663.196	7
663.209	1.6
663.222	25.6
663.235	33
663.248	-22.4
663.262	-34.8
663.275	-19.8
663.288	3.6
663.301	-13.8
663.314	-9.8
663.327	18.2
663.34	37.2
663.353	-16.6
663.366	-27.4
663.379	33.6
663.392	50.2
663.405	-34.6
663.418	-39.4
663.431	-10.8
663.445	10.4
663.458	-1.8
663.471	8.4
663.484	27.4
663.497	14.8
663.51	-35
663.523	-13.6
663.536	22.6
663.549	-21.4
663.562	-35
663.575	-43.2
663.588	-24.2
663.601	-4
663.614	-19
663.627	-2.4
663.64	12
663.653	1.2
663.666	-31.6
663.679	-24.8
663.692	51.2
663.705	59.2
663.718	-16.6
663.731	-25.4
663.744	-5.2
663.757	29
663.77	10.6
663.783	7.2
663.796	33.2
663.809	14
663.822	-6.8
663.835	-37.2
663.848	-17.4
663.861	-5
663.874	-11.8
663.887	-2.2
663.9	-4.2
663.913	-3.6
663.926	-2.8
663.939	-17.8
663.952	29
663.965	69.8
663.978	5.4
663.991	-34.8
664.004	5.4
664.017	29.2
664.03	-11.6
664.042	3.8
664.055	11.2
664.068	13.2
664.081	-5
664.094	11.6
664.107	36.6
664.12	21.6
664.133	-10.6
664.146	-14
664.159	-5
664.172	-24.6
664.185	-17.6
664.198	-11.8
664.21	35.8
664.223	5.8
664.236	-0
664.249	-2.2
664.262	8.8
664.275	-5.2
664.288	8.4
664.301	15.2
664.314	5.8
664.327	13.4
664.339	-26.2
664.352	-18.6
664.365	2.4
664.378	5.4
664.391	5.6
664.404	23.6
664.417	40.2
664.43	17
664.442	-10.4
664.455	-8.4
664.468	5.6
664.481	2.8
664.494	12.6
664.507	-35.2
664.52	-10
664.532	17.6
664.545	-1.2
664.558	2.2
664.571	9.8
664.584	11.4
664.597	-29
664.609	-7.8
664.622	26.8
664.635	19.6
664.648	1.6
664.661	-15.4
664.674	0.6
664.686	-8.6
664.699	-19.6
664.712	-6.6
664.725	-15.4
664.738	-9.4
664.751	-3
664.763	2.6
664.776	-2.4
664.789	44.6
664.802	3.4
664.815	-15
664.827	-0.2
664.84	7.6
664.853	-34.2
664.866	-6.6
664.878	-3.4
664.891	-19.8
664.904	0.4
664.917	14.6
664.93	4.6
664.942	23
664.955	19.8
664.968	14.8
664.981	34.8
664.993	5
665.006	-5.6
665.019	22.4
665.032	22.4
665.044	16
665.057	15
665.07	-6.8
665.083	-29.2
665.095	-20
665.108	-10.6
665.121	-15
665.134	-8.2
665.146	31.4
665.159	6.4
665.172	7.4
665.185	4.2
665.197	2.4
665.21	-10.8
665.223	-0.8
665.235	79.2
665.248	158.8
665.261	4.2
665.274	-12.4
665.286	44.2
665.299	28
665.312	-22
665.324	28.4
665.337	23.4
665.35	-3.6
665.362	-26
665.375	-12.8
665.388	24.8
665.4	41.6
665.413	13.2
665.426	7.2
665.438	-4.2
665.451	-0.4
665.464	-11.4
665.476	0.6
665.489	30.6
665.502	26.2
665.514	-19.2
665.527	5.8
665.54	2.2
665.552	-22.2
665.565	-18.4
665.578	-12
665.59	19.8
665.603	24.6
665.616	20
665.628	16.4
665.641	10
665.654	-15.4
665.666	-11.2
665.679	-0
665.691	41.2
665.704	29.4
665.717	-11.8
665.729	-5
665.742	18.8
665.755	-23.4
665.767	-15
665.78	-10.8
665.792	52.2
665.805	28
665.818	5.4
665.83	-24.4
665.843	26.6
665.855	-10.8
665.868	-13.4
665.881	12.4
665.893	39.6
665.906	-2.4
665.918	-13.6
665.931	-37.4
665.943	30.2
665.956	28.4
665.969	-26
665.981	-26.6
665.994	-47.2
666.006	-43.6
666.019	-21.4
666.031	23
666.044	30.6
666.057	30
666.069	16.8
666.082	-13.6
666.094	11.6
666.107	10.8
666.119	2.8
666.132	-1
666.144	8.6
666.157	-15.8
666.169	-19.6
666.182	-7.2
666.194	17.2
666.207	29
666.22	18.8
666.232	9.8
666.245	12.4
666.257	40.8
666.27	-10.8
666.282	-10.6
666.295	4.8
666.307	-4.6
666.32	-8.4
666.332	13.2
666.345	19.8
666.357	25.4
666.37	31.6
666.382	17.2
666.395	31.8
666.407	7.4
666.42	6.6
666.432	6
666.445	28.2
666.457	-11
666.469	-7.4
666.482	6.6
666.494	30.2
666.507	35.2
666.519	-9.4
666.532	-38
666.544	-11
666.557	30.8
666.569	-4.8
666.582	3.2
666.594	34
666.607	22.4
666.619	-2.6
666.631	13.2
666.644	25.2
666.656	-3
666.669	8
666.681	17
666.694	38
666.706	32.6
666.718	-5
666.731	0.6
666.743	0.8
666.756	24.4
666.768	-5.4
666.78	-24.2
666.793	3.2
666.805	22.6
666.818	-13.4
666.83	-7.4
666.843	17
666.855	-12.2
666.867	-3.8
666.88	-20.8
666.892	1.4
666.904	23.2
666.917	22
666.929	-11
666.942	34
666.954	59.2
666.966	-14.2
666.979	-13.8
666.991	-23.4
667.003	3.8
667.016	2.4
667.028	4.8
667.041	-15.2
667.053	-3.8
667.065	3
667.078	-16.6
667.09	20
667.102	29.8
667.115	-23
667.127	-19
667.139	6.6
667.152	47.2
667.164	4.2
667.176	-2.8
667.189	-16.6
667.201	-27.8
667.213	-32.2
667.226	-17.6
667.238	22
667.25	21.2
667.263	27.8
667.275	-4.6
667.287	18.6
667.3	36.2
667.312	27.2
667.324	18.6
667.337	12.6
667.349	34.6
667.361	-3.8
667.373	-37.6
667.386	-1.6
667.398	11.8
667.41	-14.2
667.423	61.4
667.435	49.6
667.447	11.6
667.459	2.2
667.472	16.8
667.484	29.2
667.496	-13.8
667.508	-24.4
667.521	12.4
667.533	17.8
667.545	24.8
667.558	2.4
667.57	4.2
667.582	1.2
667.594	1.6
667.607	13.6
667.619	5.4
667.631	61
667.643	47.2
667.655	-12.4
667.668	0.2
667.68	12.2
667.692	4.6
667.704	-12.6
667.717	-1.8
667.729	32.8
667.741	34.2
667.753	39.6
667.766	13.2
667.778	15.6
667.79	19
667.802	5.4
667.814	-12
667.827	30.8
667.839	39
667.851	-32
667.863	-36.8
667.875	-18.6
667.888	-10.8
667.9	-8
667.912	-5.8
667.924	-10.2
667.936	-1.4
667.948	-5
667.961	7.8
667.973	6
667.985	11.4
667.997	-13.8
668.009	-8.4
668.021	29.2
668.034	31.6
668.046	-1.2
668.058	-31.8
668.07	0.8
668.082	13.8
668.094	48.6
668.107	42.8
668.119	43.2
668.131	18.4
668.143	-2.6
668.155	5.8
668.167	34.8
668.179	35.4
668.192	-11.8
668.204	6
668.216	22.2
668.228	-4.2
668.24	2
668.252	28.4
668.264	43.4
668.276	-11.2
668.288	-9
668.301	-13.4
668.313	2.6
668.325	14.8
668.337	-21
668.349	-26.6
668.361	13.6
668.373	33.8
668.385	-13
668.397	-2
668.409	-13.8
668.422	10.2
668.434	-8.4
668.446	4
668.458	25.6
668.47	-6.6
668.482	-14.2
668.494	2.2
668.506	45.8
668.518	18.8
668.53	7.4
668.542	8.8
668.554	15.8
668.566	25.8
668.578	-6.2
668.59	13.4
668.602	7
668.615	-11.4
668.627	-25.2
668.639	-3.8
668.651	13.6
668.663	25.4
668.675	-16
668.687	7
668.699	74.8
668.711	23.8
668.723	6.8
668.735	14.2
668.747	13
668.759	4.6
668.771	-17.6
668.783	-24.8
668.795	10
668.807	21.2
668.819	-7.6
668.831	-0
668.843	-19.6
668.855	26.8
668.867	-29
668.879	-14.4
668.891	29.8
668.903	32.4
668.915	2.2
668.927	-9.6
668.939	12.6
668.951	14
668.963	-15.8
668.975	-4.4
668.987	31.8
668.999	28.8
669.011	11.2
669.023	20.6
669.035	54.2
669.046	9
669.058	7.6
669.07	12.8
669.082	3
669.094	-19.2
669.106	-28.8
669.118	12
669.13	31
669.142	21.2
669.154	24.6
669.166	5.8
669.178	-0.2
669.19	-12
669.202	-30.2
669.214	-9.8
669.226	18
669.237	12.6
669.249	-9.2
669.261	-24
669.273	27
669.285	33
669.297	0.4
669.309	10
669.321	29.2
669.333	39
669.345	-11.6
669.356	-26.4
669.368	-5
669.38	7.2
669.392	-26.8
669.404	-8.6
669.416	-5.6
669.428	-9.6
669.44	-30.8
669.451	-28.4
669.463	-1
669.475	27.6
669.487	-9.4
669.499	-2.6
669.511	26
669.523	6.2
669.535	-0
669.546	-11.2
669.558	20.6
669.57	-1.2
669.582	-32
669.594	-20
669.606	9
669.617	1.8
669.629	-16.6
669.641	-8.8
669.653	27.8
669.665	10
669.677	-10
669.688	-9.4
669.7	8.2
669.712	53.2
669.724	9.4
669.736	3.4
669.747	11
669.759	10.4
669.771	2.2
669.783	2.6
669.795	10
669.807	6.8
669.818	-22.2
669.83	6.2
669.842	4.6
669.854	-7.4
669.865	-11.2
669.877	11.8
669.889	44.4
669.901	37
669.913	13
669.924	44.4
669.936	73.6
669.948	37.6
669.96	-3.6
669.971	-11.6
669.983	1.6
669.995	15.2
670.007	1.6
670.018	9.4
670.03	26.8
670.042	-11.2
670.054	-7.8
670.065	-18
670.077	5.2
670.089	24
670.101	-6.6
670.112	2
670.124	32.8
670.136	21.4
670.148	-18.2
670.159	-19.8
670.171	-1.2
670.183	-2.4
670.194	-0.4
670.206	19.6
670.218	31.6
670.23	34.2
670.241	-6.8
670.253	15
670.265	64.4
670.276	41.4
670.288	5.2
670.3	-0.4
670.312	-6.4
670.323	-15.2
670.335	-20.4
670.347	-12
670.358	47.2
670.37	26.4
670.382	-10.8
670.393	-7.6
670.405	11.6
670.417	-5
670.428	4.4
670.44	7.4
670.452	30.4
670.463	1.2
670.475	-35.2
670.487	-17.2
670.498	22.2
670.51	14.2
670.522	-10.2
670.533	15.2
670.545	11.8
670.557	-12.6
670.568	5.2
670.58	-6
670.591	-14.6
670.603	-11.2
670.615	-17.4
670.626	-16.6
670.638	-4
670.65	16
670.661	-14.8
670.673	-29.4
670.684	4.6
670.696	22.6
670.708	-10.2
670.719	12.4
670.731	67.4
670.742	62.6
670.754	6.6
670.766	18.4
670.777	32.6
670.789	-2.2
670.8	-23.4
670.812	-15.4
670.824	15.2
670.835	19.6
670.847	-20.2
670.858	-23.8
670.87	-16.8
670.881	2.8
670.893	-29
670.905	-31
670.916	-17.2
670.928	7.6
670.939	8.6
670.951	10.2
670.962	12.2
670.974	-6
670.986	-21.4
670.997	-23.8
671.009	-10.6
671.02	-3.8
671.032	-34.4
671.043	-23.8
671.055	15.4
671.066	17.4
671.078	-11
671.089	-12.6
671.101	24.8
671.112	34.6
671.124	6.8
671.135	6
671.147	13.2
671.158	-5.4
671.17	15.4
671.181	36.8
671.193	32.8
671.204	46.4
671.216	-11.2
671.227	-5
671.239	6.6
671.25	-7.2
671.262	-4.8
671.273	-16
671.285	1.4
671.296	-0.8
671.308	-5.8
671.319	-20
671.331	-13.6
671.342	22.8
671.354	16.2
671.365	2.2
671.377	-27.2
671.388	-29.4
671.4	-21.2
671.411	-12.6
671.423	-19.6
671.434	5
671.446	15.6
671.457	8.4
671.468	28.8
671.48	36
671.491	-6.6
671.503	34.2
671.514	32.2
671.526	23.2
671.537	-0.2
671.548	-15.6
671.56	9.2
671.571	10.2
671.583	-5.4
671.594	27.4
671.606	78.6
671.617	47.6
671.628	-7.4
671.64	1.4
671.651	-2.8
671.663	-13.2
671.674	-34.6
671.685	-27.8
671.697	-26.2
671.708	-24.8
671.72	-2.6
671.731	-11.6
671.742	11.4
671.754	6
671.765	-18.6
671.777	-33.6
671.788	15.2
671.799	52.8
671.811	6.2
671.822	7.4
671.833	-0.4
671.845	11.6
671.856	13.4
671.868	22.2
671.879	55.2
671.89	94.8
671.902	1.4
671.913	-21.4
671.924	-25.6
671.936	-4
671.947	-9.4
671.958	-5
671.97	50
671.981	27.2
671.992	-1.2
672.004	-31.8
672.015	10.4
672.026	11.2
672.038	-15
672.049	-6.8
672.06	-11
672.072	-23.2
672.083	-18
672.094	-1.8
672.106	55
672.117	97.6
672.128	8.4
672.139	-20.4
672.151	0.8
672.162	0.8
672.173	-11.8
672.185	-7.6
672.196	36.6
672.207	33.2
672.219	11.6
672.23	33.8
672.241	52
672.252	9.2
672.264	-14.8
672.275	-5.2
672.286	34.4
672.297	23.6
672.309	-12.8
672.32	-4.2
672.331	12.8
672.342	6.4
672.354	-22.8
672.365	-10.4
672.376	13.6
672.387	-16
672.399	-26.2
672.41	-9.6
672.421	49.2
672.432	51
672.444	-12.2
672.455	-14.6
672.466	40.2
672.477	20.2
672.489	7.4
672.5	2
672.511	7.4
672.522	9
672.533	-14
672.545	-2.2
672.556	36.2
672.567	9.8
672.578	-13.2
672.59	-2.4
672.601	9.2
672.612	-7.4
672.623	-0.6
672.634	1.4
672.646	20
672.657	4.4
672.668	-19
672.679	-23.8
672.69	-8.6
672.701	-14.6
672.713	-32
672.724	-31.2
672.735	-10.6
672.746	11
672.757	-15.4
672.768	-6.6
672.78	15.8
672.791	-0.8
672.802	-29.4
672.813	4
672.824	33.6
672.835	29.4
672.847	-11.8
672.858	-15.2
672.869	-0.4
672.88	16.6
672.891	-21.2
672.902	-0
672.913	0.4
672.925	-8.6
672.936	-12.6
672.947	11.6
672.958	42.2
672.969	-17.6
672.98	-1.6
672.991	21.6
673.002	10.8
673.013	-5.2
673.025	-27.4
673.036	-9.6
673.047	26.4
673.058	-1.2
673.069	-4.6
673.08	-11.4
673.091	11.2
673.102	-30.2
673.113	-16.6
673.124	15
673.136	47.4
673.147	20.4
673.158	-16.4
673.169	-7.8
673.18	2
673.191	-10.8
673.202	-12.4
673.213	-10.8
673.224	23
673.235	25.2
673.246	-10.2
673.257	-6
673.268	18.6
673.279	32.8
673.29	-4.2
673.301	17.2
673.313	24.6
673.324	12.2
673.335	-14
673.346	-8.4
673.357	1.2
673.368	-22.2
673.379	-17.4
673.39	2.4
673.401	43.8
673.412	7.2
673.423	8.2
673.434	-16.2
673.445	29.8
673.456	1.4
673.467	-30.2
673.478	13.6
673.489	48.6
673.5	9.4
673.511	-9.6
673.522	14.8
673.533	68.4
673.544	41.4
673.555	-21.6
673.566	4.6
673.577	23.4
673.588	0.6
673.599	9.8
673.61	-5.8
673.621	42.4
673.632	89.4
673.643	7.2
673.654	-8.4
673.665	17.8
673.676	-9.2
673.687	-19.6
673.698	-27
673.709	20.2
673.719	26
673.73	28.4
673.741	70.2
673.752	68.8
673.763	73.6
673.774	-5
673.785	1.8
673.796	18.8
673.807	26.6
673.818	-18.6
673.829	16.4
673.84	55
673.851	31.4
673.862	-6.2
673.873	-9.2
673.883	34
673.894	12.8
673.905	4.6
673.916	16.2
673.927	29.4
673.938	34.8
673.949	-12.8
673.96	-13.6
673.971	18.6
673.982	18.6
673.993	-12.8
674.003	-0.4
674.014	10
674.025	10.4
674.036	-34.4
674.047	-30.8
674.058	10.8
674.069	20.6
674.08	-9.2
674.09	9.6
674.101	-8.6
674.112	-34.4
674.123	-12
674.134	-13.4
674.145	-10.4
674.156	-2
674.166	-13.2
674.177	-24
674.188	3
674.199	4.2
674.21	-33
674.221	-20.8
674.232	1.2
674.242	-18.2
674.253	-13.8
674.264	33.6
674.275	44
674.286	-8.4
674.297	-24.8
674.307	-16.4
674.318	1.8
674.329	2
674.34	3.6
674.351	-3.8
674.361	15.4
674.372	27.2
674.383	-36.8
674.394	-31.8
674.405	39
674.415	24.6
674.426	-18
674.437	-18.2
674.448	-5
674.459	0.2
674.469	0.8
674.48	6.6
674.491	-6.6
674.502	-1.6
674.512	-19.2
674.523	-33.6
674.534	-46
674.545	-34.8
674.556	-30.4
674.566	-21.2
674.577	-1.6
674.588	5.6
674.599	-21.8
674.609	-9.8
674.62	29.8
674.631	19.8
674.642	-26.6
674.652	-18.6
674.663	13.2
674.674	34.6
674.685	19.8
674.695	42.2
674.706	24.6
674.717	4.8
674.727	-19.2
674.738	-20.8
674.749	2.6
674.76	-6.4
674.77	2
674.781	-19.6
674.792	31.8
674.802	21.8
674.813	-12
674.824	-0
674.835	5
674.845	-18.4
674.856	-21.4
674.867	-14.2
674.877	-10.6
674.888	-1
674.899	-10.4
674.909	-4.4
674.92	29.8
674.931	8.6
674.941	-34.4
674.952	-0.6
674.963	62.4
674.973	41.6
674.984	4.2
674.995	1.4
675.005	-8.4
675.016	0.6
675.027	-14.4
675.037	-16.8
675.048	4.8
675.059	37.6
675.069	4.8
675.08	-2.8
675.091	-30
675.101	-29.8
675.112	-26.4
675.123	15.6
675.133	37.8
675.144	15.6
675.154	-18
675.165	-18
675.176	33.4
675.186	52.4
675.197	14
675.208	8.8
675.218	12.4
675.229	0.8
675.239	5
675.25	18
675.261	42
675.271	32
675.282	10.2
675.292	1.4
675.303	15.6
675.314	6.2
675.324	-11.4
675.335	-34.8
675.345	-13.2
675.356	-3.6
675.366	-42.8
675.377	-42.2
675.388	-4.2
675.398	1.2
675.409	-15.8
675.419	1.4
675.43	45.8
675.44	32.2
675.451	-6.8
675.462	-0.4
675.472	27.2
675.483	19
675.493	8.2
675.504	2
675.514	6.8
675.525	4.8
675.535	-31
675.546	-12.2
675.556	28.8
675.567	-2
675.578	-9
675.588	-20
675.599	12.6
675.609	-3.4
675.62	-28.2
675.63	-15.4
675.641	-17.8
675.651	-21.8
675.662	0.2
675.672	-20.6
675.683	0.4
675.693	4.6
675.704	-24.8
675.714	22.6
675.725	69.2
675.735	27.6
675.746	10
675.756	-15
675.767	-11.2
675.777	-1.6
675.788	-0.6
675.798	-15.2
675.809	37.8
675.819	59.2
675.829	2.6
675.84	-0.6
675.85	31
675.861	29.4
675.871	25.4
675.882	6.6
675.892	32.6
675.903	35.4
675.913	0.4
675.924	6
675.934	-0.4
675.944	7.4
675.955	7.8
675.965	-20.8
675.976	22.8
675.986	54
675.997	-16.6
676.007	10.8
676.018	42.2
676.028	18.8
676.038	-22.2
676.049	-7.2
676.059	2.2
676.07	11.8
676.08	39.6
676.09	10.4
676.101	-4.4
676.111	-5.2
676.122	-2.8
676.132	-5.8
676.142	20.2
676.153	0.6
676.163	-32.2
676.174	-24.8
676.184	-34
676.194	1.6
676.205	-19.8
676.215	-19.2
676.226	13.4
676.236	43.6
676.246	16.2
676.257	-19
676.267	-24.6
676.277	-15.8
676.288	21.6
676.298	4
676.308	23.8
676.319	-22.2
676.329	-5
676.34	24.2
676.35	45.2
676.36	3.2
676.371	-18
676.381	-20.8
676.391	-20.8
676.402	8.8
676.412	18.6
676.422	-0.4
676.433	31
676.443	62.2
676.453	10.8
676.464	-20.6
676.474	17.6
676.484	25.2
676.494	-5
676.505	5.8
676.515	26.2
676.525	38.6
676.536	-12.4
676.546	2.6
676.556	29
676.567	-2.4
676.577	-13.6
676.587	13.2
676.597	34
676.608	16
676.618	-13.4
676.628	-18.2
676.639	-29.4
676.649	-16.8
676.659	-22.4
676.669	-28.8
676.68	6.8
676.69	40.2
676.7	15.2
676.71	3.6
676.721	76.6
676.731	44.6
676.741	-3.2
676.751	9.4
676.762	57.4
676.772	2.6
676.782	-43.4
676.792	-9.6
676.803	29.8
676.813	-24.2
676.823	-47.4
676.833	16
676.844	68.4
676.854	-9.2
676.864	-5.8
676.874	1.4
676.885	38.4
676.895	35.2
676.905	-52
676.915	-43.4
676.925	-5.6
676.936	18.6
676.946	-8.8
676.956	-28.4
676.966	-31.6
676.976	-18.2
676.987	-26.6
676.997	-20.4
677.007	16.6
677.017	47.2
677.027	4.8
677.038	1.8
677.048	11.8
677.058	-8.4
677.068	-40.8
677.078	-28.4
677.088	14.2
677.099	-19.6
677.109	-24.2
677.119	-10.2
677.129	31.8
677.139	24
677.149	-38.4
677.16	-42.8
677.17	11
677.18	7.8
677.19	-20
677.2	-36.2
677.21	-29.2
677.22	-9.8
677.231	-44.6
677.241	-46.4
677.251	10.2
677.261	21.6
677.271	-16
677.281	-31
677.291	6
677.301	-4.2
677.312	31.4
677.322	148.6
677.332	0.8
677.342	-18
677.352	-30.2
677.362	-4
677.372	45.6
677.382	49.8
677.392	21.8
677.402	-17
677.413	-23
677.423	-11.4
677.433	-30.6
677.443	-25.4
677.453	23.4
677.463	-14.4
677.473	-47
677.483	-42.6
677.493	6.8
677.503	-9.8
677.513	-25.2
677.523	-10
677.533	37.6
677.544	10.8
677.554	-28.6
677.564	-2.4
677.574	60.2
677.584	17.8
677.594	-50.6
677.604	-38.4
677.614	10.6
677.624	3.8
677.634	-22.8
677.644	20.2
677.654	49.8
677.664	18
677.674	-34.4
677.684	-22.2
677.694	26
677.704	2
677.714	-38.8
677.724	-37.4
677.734	8.6
677.744	-14.6
677.754	-42.8
677.764	-21
677.774	23.6
677.784	29
677.794	-28.8
677.804	6
677.814	14.2
677.824	-36
677.834	-56.6
677.844	-26.6
677.854	22.2
677.864	21.8
677.874	-37
677.884	-22.2
677.894	28.2
677.904	7.4
677.914	-11
677.924	1.6
677.934	68.2
677.944	27.4
677.954	-35.4
677.964	-15.6
677.974	17.2
677.984	-9
677.994	-42.4
678.004	-23.8
678.014	-7
678.024	-7.6
678.033	-21.2
678.043	-18
678.053	-4.6
678.063	-7
678.073	-35.8
678.083	-14.2
678.093	50
678.103	14
678.113	-35.2
678.123	-4
678.133	8.8
678.143	-11
678.153	-17.6
678.162	-16
678.172	1.4
678.182	-7
678.192	-29.4
678.202	-33.4
678.212	-13
678.222	19.6
678.232	-14
678.242	-10
678.252	33.8
678.261	42.2
678.271	-2.6
678.281	1.4
678.291	40.8
678.301	8.2
678.311	-44.4
678.321	-24
678.331	22.2
678.34	-2.2
678.35	-50.8
678.36	-25.2
678.37	2.2
678.38	-5
678.39	-46.2
678.4	-27
678.409	4.4
678.419	-10.8
678.429	-41.6
678.439	-9.2
678.449	16.2
678.459	16.2
678.468	-16.4
678.478	-33.2
678.488	2.8
678.498	30.6
678.508	-5.8
678.518	-9.2
678.527	34.8
678.537	9.8
678.547	-40.8
678.557	-45.8
678.567	-14.6
678.576	-21.8
678.586	-49.8
678.596	1.8
678.606	14.4
678.616	-34.6
678.625	-33
678.635	19.4
678.645	39.8
678.655	-9.4
678.665	-27.2
678.674	-13.4
678.684	19.4
678.694	-5.4
678.704	-32.8
678.713	-10.2
678.723	32.6
678.733	22.6
678.743	-32
678.752	-29
678.762	-0.8
678.772	11.6
678.782	-32.6
678.791	-10.4
678.801	14.2
678.811	-14
678.821	-50
678.83	-12
678.84	23.4
678.85	-14.6
678.86	-31.8
678.869	-9
678.879	37
678.889	21.2
678.899	-25.2
678.908	-11.2
678.918	1.4
678.928	-6.4
678.937	-49.6
678.947	-24.8
678.957	3.4
678.967	4.2
678.976	-27.6
678.986	7
678.996	-10.4
679.005	-25
679.015	-35.6
679.025	-41.6
679.034	-11.2
679.044	22.2
679.054	-14
679.063	-24.2
679.073	-5.6
679.083	4.6
679.093	-26.8
679.102	2.2
679.112	6
679.122	-18.8
679.131	-27
679.141	-32
679.151	-6.2
679.16	-13.2
679.17	-50.4
679.179	-1
679.189	30.6
679.199	-26.6
679.208	-31.6
679.218	-17
679.228	24.8
679.237	13
679.247	-23.8
679.257	-20
679.266	10
679.276	17.4
679.285	-40
679.295	-18
679.305	-8.4
679.314	-28.4
679.324	-40.8
679.334	-32.2
679.343	50.8
679.353	65.2
679.362	-43.6
679.372	1.4
679.382	41.8
679.391	-11.8
679.401	19.4
679.41	-12.8
679.42	6.2
679.43	-1.8
679.439	-39.6
679.449	-5
679.458	55.2
679.468	1.8
679.477	-50
679.487	-28.2
679.497	15
679.506	11.8
679.516	-25.2
679.525	-16.2
679.535	37.6
679.544	8.8
679.554	-28.6
679.564	-7.8
679.573	25.4
679.583	-4.8
679.592	-40.4
679.602	1
679.611	50.6
679.621	8.2
679.63	-35.8
679.64	-7.6
679.649	43
679.659	12.6
679.669	-34.8
679.678	-6.2
679.688	30
679.697	36.4
679.707	16.6
679.716	19.2
679.726	61
679.735	22.6
679.745	-44
679.754	-33.2
679.764	37
679.773	33.8
679.783	-32.4
679.792	-15.4
679.802	26.6
679.811	-9.6
679.821	-34
679.83	-0.6
679.84	38.4
679.849	3.8
679.859	-17.8
679.868	-26.2
679.877	13
679.887	-11.8
679.896	-40.6
679.906	-21.4
679.915	25.6
679.925	8.6
679.934	-26.8
679.944	7
679.953	52
679.963	15.4
679.972	-31.8
679.982	-17.6
679.991	1.2
680	-13.2
680.01	-39.2
680.019	-31.8
680.029	0.4
680.038	45.6
680.048	-37.4
680.057	-24.2
680.066	13.8
680.076	-14.4
680.085	-38
680.095	-11.4
680.104	-2.8
680.114	-29
680.123	-34.4
680.132	-10
680.142	50.4
680.151	13.8
680.161	-42.6
680.17	-10.6
680.179	36.8
680.189	26.2
680.198	-39.2
680.208	-35.2
680.217	-2.4
